DTS Sentinel unit serial number:	SN208115Multiplexer serial number:	no multiplexerHardware model number:	SEN2MRSoftware version number:	3.7data status	okinstallation	Posledni klalibrace stavebkadifferential loss correction	single-endedforward channel	Posledni klalibrace stavebkareverse channel	N/Adate	2016/05/20time	08:29:13forward acquisition time	30.18reverse acquisition time	NaNgamma	501.9000k internal	0.1925k external	0.1925temperature offset calibration	0.9869default loss term (dB/km)	0.2890temperature slope calibration	0.6300multiplexer offset coefficient	0.0000multiplexer slope coefficient	0.0000fibre end	NaNT internal ref (°C)	25.49T ext. ref 1 (°C)	0.73T ext. ref 2 (°C)	0.38length (m)	temperature (°C)	Stokes	anti-Stokes-373.500	3.666	0.419	0.360
-372.485	-55.402	-0.719	-0.377
-371.469	-93.767	-0.016	0.005
-370.454	-60.866	0.604	-0.299
-369.438	266.383	0.204	0.423
-368.423	52.245	-0.406	0.456
-367.407	-65.902	-0.716	-0.334
-366.392	102.690	0.418	0.577
-365.377	428.984	-0.387	0.994
-364.361	-63.842	0.332	-0.159
-363.346	20.227	-0.314	0.298
-362.330	-73.418	0.796	0.339
-361.315	-67.961	0.814	0.370
-360.300	-147.646	-0.271	-0.026
-359.284	-174.941	-0.456	0.014
-358.269	-41.007	-0.709	0.429
-357.253	-81.873	-0.111	-0.042
-356.238	-200.000	0.011	0.390
-355.222	192.720	-0.221	-0.396
-354.207	-200.000	-0.013	-0.689
-353.192	25.901	0.622	0.610
-352.176	-13.982	-0.391	0.296
-351.161	-47.770	-1.101	0.624
-350.145	4.973	-0.687	0.594
-349.130	-61.890	-0.220	0.107
-348.115	-69.065	0.261	-0.117
-347.099	-20.863	-0.207	0.149
-346.084	800.000	-0.049	-0.182
-345.068	31.601	-0.106	-0.107
-344.053	-200.000	0.091	0.545
-343.037	4.299	0.201	-0.173
-342.022	-8.011	-0.367	-0.290
-341.007	-185.868	-0.522	0.009
-339.991	-33.463	-0.296	0.191
-338.976	403.194	-0.080	-0.200
-337.960	8.197	0.141	0.124
-336.945	227.669	-0.249	0.480
-335.929	13.043	-0.300	-0.272
-334.914	-87.531	1.483	0.521
-333.899	-169.920	-0.321	0.013
-332.883	-78.406	-0.899	0.359
-331.868	-145.580	-0.438	-0.045
-330.852	12.352	-0.422	0.382
-329.837	-200.000	-0.010	0.207
-328.822	13.073	0.968	-0.879
-327.806	652.615	-0.100	-0.307
-326.791	340.263	-0.281	0.652
-325.775	789.332	-0.295	0.965
-324.760	-151.791	-1.143	0.096
-323.744	-83.598	-0.431	0.160
-322.729	800.000	0.356	1.199
-321.714	-43.719	0.876	0.516
-320.698	3.751	0.131	-0.112
-319.683	-34.410	0.397	0.255
-318.667	71.286	-0.391	0.477
-317.652	-87.957	0.975	0.340
-316.637	-59.353	0.123	-0.062
-315.621	429.521	-0.057	-0.146
-314.606	759.544	0.088	0.284
-313.590	-200.000	-0.104	0.651
-312.575	-200.000	-0.057	0.767
-311.559	338.431	0.098	0.225
-310.544	-33.602	-0.477	-0.308
-309.529	57.120	-0.209	-0.240
-308.513	-144.084	0.314	-0.034
-307.498	159.099	0.347	-0.570
-306.482	-7.980	-0.341	-0.270
-305.467	54.634	-0.473	-0.536
-304.451	-200.000	-0.033	-0.892
-303.436	720.187	-0.098	-0.311
-302.421	140.366	-0.282	-0.439
-301.405	-141.745	0.358	0.041
-300.390	-160.507	0.362	-0.022
-299.374	-0.567	0.527	-0.438
-298.359	-149.272	0.661	0.060
-297.344	800.000	0.061	-0.291
-296.328	-31.365	0.728	0.479
-295.313	-56.544	0.203	0.105
-294.297	298.137	0.097	0.212
-293.282	-107.499	0.455	0.115
-292.266	800.000	-0.119	-0.416
-291.251	137.713	-0.174	-0.268
-290.236	18.428	-0.088	0.082
-289.220	232.872	-0.254	-0.494
-288.205	5.534	-0.120	0.103
-287.189	-98.294	-0.395	-0.117
-286.174	-28.659	-0.723	-0.486
-285.159	-200.000	-0.052	0.818
-284.143	733.298	0.107	-0.341
-283.128	105.424	0.485	0.675
-282.112	-7.436	0.064	-0.051
-281.097	-17.857	0.339	-0.249
-280.081	271.632	-0.109	0.227
-279.066	115.567	-0.250	0.361
-278.051	-79.477	-0.097	0.038
-277.035	-200.000	-0.005	-0.244
-276.020	-75.419	0.447	0.185
-275.004	-130.645	0.359	-0.056
-273.989	-200.000	0.036	-0.288
-272.973	387.853	0.066	-0.163
-271.958	-107.306	-0.789	-0.200
-270.943	-43.308	0.468	-0.276
-269.927	26.246	-0.131	0.128
-268.912	74.507	-0.547	0.677
-267.896	139.841	0.466	0.724
-266.881	-45.630	0.366	0.211
-265.866	-57.079	-0.230	0.118
-264.850	16.019	0.253	-0.233
-263.835	-54.036	-0.662	0.351
-262.819	-38.538	-0.475	0.293
-261.804	43.144	-0.375	-0.402
-260.788	-59.831	0.166	-0.082
-259.773	204.890	0.299	0.549
-258.758	800.000	0.180	-0.768
-257.742	-17.848	0.612	-0.449
-256.727	-82.986	-0.912	-0.341
-255.711	-47.924	-0.210	0.118
-254.696	200.849	0.198	0.360
-253.680	62.806	-0.498	0.585
-252.665	-173.239	0.878	-0.030
-251.650	22.209	-0.187	-0.179
-250.634	122.705	0.106	-0.156
-249.619	179.208	-0.420	0.726
-248.603	-200.000	0.019	0.499
-247.588	-200.000	-0.082	-0.433
-246.573	44.914	-0.140	0.151
-245.557	800.000	0.181	0.876
-244.542	-125.560	-1.065	0.186
-243.526	800.000	0.027	-0.132
-242.511	172.704	-0.442	-0.750
-241.495	17.192	0.759	0.705
-240.480	-57.525	0.801	-0.409
-239.465	146.482	0.194	0.306
-238.449	-200.000	-0.012	0.205
-237.434	123.261	-0.174	-0.256
-236.418	-51.863	-0.214	0.116
-235.403	312.878	0.023	-0.052
-234.388	-200.000	-0.027	0.653
-233.372	-200.000	0.076	0.581
-232.357	728.606	-0.357	-1.130
-231.341	99.634	0.355	-0.484
-230.326	-73.527	-0.419	0.177
-229.310	152.708	0.561	-0.903
-228.295	-200.000	-0.058	-0.427
-227.280	39.581	0.594	-0.624
-226.264	141.567	0.201	-0.313
-225.249	-107.958	-0.460	-0.115
-224.233	-200.000	-0.105	-0.605
-223.218	-141.056	-0.106	-0.012
-222.202	-189.243	0.624	0.008
-221.187	800.000	-0.137	-0.554
-220.172	-44.221	-1.080	-0.630
-219.156	-46.178	-0.549	-0.314
-218.141	-200.000	-0.017	0.627
-217.125	38.471	-0.090	-0.094
-216.110	-51.884	0.240	-0.130
-215.095	230.837	-0.427	-0.825
-214.079	-109.448	0.530	0.129
-213.064	-76.366	-0.301	0.123
-212.048	-4.434	-0.333	0.269
-211.033	-200.000	0.032	-0.400
-210.017	800.000	-0.082	0.428
-209.002	150.808	0.093	-0.149
-207.987	-0.929	0.050	0.041
-206.971	-56.809	-0.222	0.114
-205.956	411.887	0.085	0.213
-204.940	-75.409	0.639	0.264
-203.925	27.257	-0.749	0.736
-202.910	-5.339	0.561	0.450
-201.894	26.714	-0.225	-0.220
-200.879	-4.898	0.313	-0.252
-199.863	-200.000	-0.023	-0.309
-198.848	-74.272	-0.533	-0.223
-197.832	-153.811	0.537	0.042
-196.817	-112.619	-0.486	-0.111
-195.802	96.331	0.427	0.573
-194.786	178.409	-0.180	0.309
-193.771	95.021	-0.225	-0.300
-192.755	152.769	0.271	0.435
-191.740	91.032	0.480	0.633
-190.724	13.356	0.255	0.231
-189.709	-49.496	-0.096	0.053
-188.694	-162.575	0.675	0.038
-187.678	-24.008	-0.255	0.178
-186.663	-200.000	-0.023	-0.246
-185.647	-87.443	-0.529	0.185
-184.632	166.078	-0.586	-0.976
-183.617	-99.224	0.264	-0.077
-182.601	-153.373	0.705	-0.056
-181.586	238.364	0.358	-0.700
-180.570	134.556	-0.387	-0.591
-179.555	581.787	0.269	-0.782
-178.539	20.810	-0.276	0.261
-177.524	-135.948	-0.706	-0.095
-176.509	43.022	-0.380	0.405
-175.493	-85.696	0.467	-0.167
-174.478	-95.275	0.851	-0.264
-173.462	-33.359	0.347	0.223
-172.447	-29.448	0.726	0.484
-171.432	-172.161	-0.678	0.025
-170.416	-33.905	-0.612	-0.392
-169.401	516.070	0.179	0.495
-168.385	98.753	-0.209	0.283
-167.370	-132.177	-0.404	-0.060
-166.354	-71.706	0.278	0.120
-165.339	521.994	-0.120	-0.334
-164.324	4.777	0.385	-0.330
-163.308	800.000	0.037	-0.121
-162.293	-127.326	0.452	0.075
-161.277	800.000	0.254	-1.054
-160.262	98.708	-0.566	-0.766
-159.246	69.843	0.494	0.597
-158.231	-116.757	0.364	-0.077
-157.216	-72.133	0.551	-0.237
-156.200	13.505	0.538	-0.487
-155.185	94.669	-0.241	-0.322
-154.169	-200.000	0.013	-0.181
-153.154	800.000	-0.182	0.718
-152.139	316.803	-0.334	0.744
-151.123	136.955	-0.440	0.676
-150.108	632.393	0.121	-0.364
-149.092	-200.000	-0.035	-0.293
-148.077	-133.868	-0.722	-0.103
-147.061	-200.000	-0.003	-0.095
-146.046	-43.578	0.639	0.374
-145.031	-80.617	-0.491	0.189
-144.015	800.000	-0.038	-0.144
-143.000	-73.148	-0.812	0.344
-141.984	-81.943	-0.908	0.343
-140.969	523.190	0.382	1.061
-139.954	333.766	0.112	-0.255
-138.938	-171.038	-0.329	-0.013
-137.923	163.108	0.363	-0.600
-136.907	-97.358	0.787	0.236
-135.892	-109.170	0.434	-0.106
-134.876	-136.219	-0.300	-0.040
-133.861	-14.297	0.527	0.395
-132.846	800.000	-0.132	0.547
-131.830	301.920	0.254	0.553
-130.815	7.258	0.324	0.282
-129.799	7.942	-0.360	0.315
-128.784	800.000	0.108	0.471
-127.768	364.159	0.248	0.587
-126.753	-55.374	0.453	-0.236
-125.738	800.000	0.174	-0.573
-124.722	-40.397	0.133	-0.080
-123.707	7.196	0.235	0.204
-122.691	102.287	-0.256	-0.350
-121.676	-102.229	-1.311	-0.362
-120.661	150.981	0.179	0.286
-119.645	145.125	0.522	-0.819
-118.630	-144.039	-0.599	-0.064
-117.614	119.317	-0.273	0.396
-116.599	-167.417	-0.341	0.015
-115.583	219.611	0.111	0.209
-114.568	-200.000	0.062	0.446
-113.553	800.000	0.260	0.979
-112.537	-83.394	106.730	39.477
-111.522	77.259	458.635	570.365
-110.506	435.445	73.660	188.946
-109.491	30.761	28.146	28.113
-108.476	43.983	6.502	6.957
-107.460	446.707	-0.816	-2.116
-106.445	-27.028	-2.332	-1.580
-105.429	800.000	0.239	0.855
-104.414	6.160	0.448	-0.387
-103.398	253.556	-0.778	-1.562
-102.383	-200.000	-0.072	-0.871
-101.368	-68.880	-1.266	-0.565
-100.352	-99.178	0.927	-0.270
-99.337	11.962	0.367	-0.329
-98.321	675.529	-0.268	-0.824
-97.306	101.981	-1.518	-2.073
-96.290	223.271	-0.081	0.153
-95.275	-70.574	0.935	0.409
-94.260	-20.052	-0.378	-0.271
-93.244	552.922	-0.436	-1.236
-92.229	-143.298	-0.823	0.090
-91.213	-35.875	-0.981	-0.616
-90.198	-43.331	-1.392	-0.816
-89.183	457.196	0.352	-0.921
-88.167	-200.000	0.024	-0.381
-87.152	72.612	-0.823	-1.003
-86.136	-200.000	-0.075	-0.602
-85.121	43.708	0.406	0.434
-84.105	-108.275	-1.303	-0.323
-83.090	344.072	-0.596	-1.376
-82.075	39.369	0.316	0.330
-81.059	21.395	-0.260	0.246
-80.044	95.602	0.408	-0.544
-79.028	-36.099	-0.139	0.087
-78.013	336.901	0.181	0.415
-76.998	-117.001	-0.548	-0.115
-75.982	388.951	0.473	-1.154
-74.967	6.556	0.815	0.705
-73.951	-11.707	-0.891	-0.679
-72.936	-200.000	0.063	-0.993
-71.920	173.276	0.186	0.314
-70.905	196.737	-0.262	-0.468
-69.890	-33.157	-1.110	-0.713
-68.874	103.185	-0.208	0.285
-67.859	-115.672	1.084	0.233
-66.843	519.196	0.156	-0.431
-65.828	-53.865	1.017	-0.536
-64.812	72.843	0.861	1.050
-63.797	-30.254	1.581	1.041
-62.782	-185.377	0.621	0.011
-61.766	4.503	1.351	1.153
-60.751	1.340	2.582	2.157
-59.735	31.664	2.883	2.889
-58.720	2.366	4.727	3.976
-57.705	38.695	6.221	6.468
-56.689	18.994	9.401	8.769
-55.674	-51.094	39.797	21.585
-54.658	-49.024	108.277	59.962
-53.643	-11.937	1086.077	826.544
-52.627	15.413	10373.028	9470.785
-51.612	32.537	11561.799	11636.076
-50.597	28.421	9053.514	8909.455
-49.581	25.501	8867.971	8585.664
-48.566	24.968	8827.907	8520.967
-47.550	25.557	8792.418	8514.633
-46.535	25.624	8761.846	8487.905
-45.519	25.608	8739.021	8464.729
-44.504	25.597	8717.586	8443.162
-43.489	25.515	8701.714	8423.619
-42.473	25.527	8693.145	8415.581
-41.458	25.491	8687.898	8408.500
-40.442	25.461	8677.237	8396.468
-39.427	25.557	8669.110	8392.872
-38.412	25.457	8662.207	8381.143
-37.396	25.464	8656.854	8376.035
-36.381	25.485	8653.560	8373.525
-35.365	25.573	8640.738	8364.981
-34.350	25.481	8632.267	8352.138
-33.334	25.520	8627.249	8348.829
-32.319	25.519	8618.732	8340.239
-31.304	25.547	8619.582	8342.080
-30.288	25.583	8615.718	8339.750
-29.273	25.531	8606.426	8328.038
-28.257	25.582	8592.345	8316.522
-27.242	25.526	8588.874	8310.233
-26.227	25.448	8583.832	8301.423
-25.211	25.450	8575.009	8292.671
-24.196	25.426	8574.309	8290.600
-23.180	25.512	8567.225	8287.453
-22.165	25.497	8560.434	8279.919
-21.149	25.538	8558.705	8279.860
-20.134	25.587	8552.898	8276.229
-19.119	25.537	8546.105	8267.063
-18.103	25.444	8537.771	8254.390
-17.088	25.480	8529.456	8247.699
-16.072	25.515	8524.756	8244.506
-15.057	25.491	8515.911	8234.530
-14.041	25.437	8509.013	8225.101
-13.026	25.419	8507.547	8222.542
-12.011	25.457	8507.542	8224.021
-10.995	25.515	8501.742	8220.788
-9.980	25.437	8500.392	8215.598
-8.964	25.471	8489.925	8206.766
-7.949	25.416	8484.117	8198.335
-6.934	25.495	8484.104	8201.660
-5.918	25.485	8478.912	8195.901
-4.903	25.386	8473.806	8186.132
-3.887	25.463	8466.746	8182.563
-2.872	25.366	8461.430	8172.666
-1.856	25.372	8454.945	8166.412
-0.841	25.402	8446.726	8159.564
0.174	23.602	8480.769	8228.010
1.190	23.657	8262.085	8018.007
2.205	22.220	7773.588	7481.821
3.221	22.581	7602.917	7332.451
4.236	25.704	6848.473	6722.747
5.251	27.865	4658.180	4627.927
6.267	23.718	3797.252	3685.570
7.282	24.268	3716.296	3618.150
8.298	24.345	3709.762	3613.211
9.313	24.638	3705.216	3614.617
10.329	24.635	3702.525	3611.780
11.344	24.688	3698.010	3608.299
12.359	24.799	3694.266	3606.763
13.375	24.761	3699.860	3611.286
14.390	24.723	3695.038	3605.658
15.406	24.706	3692.080	3602.270
16.421	24.613	3690.456	3598.646
17.437	24.674	3690.070	3599.349
18.452	24.801	3687.366	3599.151
19.467	24.682	3688.942	3598.106
20.483	24.719	3686.546	3596.363
21.498	24.738	3684.550	3594.655
22.514	24.693	3682.088	3591.179
23.529	24.578	3683.417	3589.996
24.544	24.412	3683.384	3586.430
25.560	23.947	3679.149	3572.707
26.575	23.128	3671.663	3548.692
27.591	23.203	3674.191	3552.507
28.606	22.512	3668.884	3533.196
29.622	21.582	3659.428	3505.127
30.637	20.873	3655.180	3486.555
31.652	20.629	3655.600	3481.867
32.668	22.405	3669.639	3531.156
33.683	24.396	3677.860	3579.369
34.699	24.250	3678.553	3576.928
35.714	27.778	3700.378	3669.876
36.729	29.336	3698.022	3699.023
37.745	25.290	3670.756	3589.928
38.760	23.646	3654.496	3540.744
39.776	23.483	3653.256	3536.093
40.791	24.252	3658.279	3556.338
41.807	24.497	3656.205	3559.113
42.822	23.563	3654.609	3538.570
43.837	23.122	3653.364	3528.319
44.853	23.059	3649.735	3523.392
45.868	23.032	3647.103	3520.170
46.884	22.326	3642.529	3501.384
47.899	21.392	3637.984	3478.080
48.915	21.287	3636.735	3474.640
49.930	21.055	3630.945	3464.303
50.945	20.870	3625.733	3455.470
51.961	21.231	3628.692	3465.383
52.976	23.434	3640.275	3520.611
53.992	23.394	3631.098	3510.777
55.007	22.653	3630.352	3495.063
56.022	22.067	3627.797	3480.706
57.038	21.768	3622.445	3469.440
58.053	22.045	3623.269	3475.632
59.069	23.541	3623.227	3505.362
60.084	23.502	3612.878	3494.424
61.100	21.599	3597.893	3441.976
62.115	21.210	3591.828	3428.305
63.130	23.365	3569.675	3449.493
64.146	23.493	3555.537	3438.202
65.161	23.487	3553.304	3435.773
66.177	23.495	3550.185	3432.772
67.192	23.532	3547.831	3431.072
68.207	23.545	3544.736	3428.194
69.223	23.575	3542.059	3426.028
70.238	23.566	3540.686	3424.396
71.254	23.661	3533.732	3419.370
72.269	23.661	3533.060	3418.577
73.285	23.658	3529.178	3414.615
74.300	23.800	3530.996	3418.986
75.315	24.189	3528.163	3423.658
76.331	24.448	3527.087	3427.499
77.346	24.187	3515.758	3411.295
78.362	23.501	3503.499	3386.014
79.377	23.366	3499.031	3378.943
80.393	23.327	3496.608	3375.711
81.408	23.393	3489.581	3370.060
82.423	23.455	3482.782	3364.536
83.439	23.422	3485.376	3366.271
84.454	23.498	3482.933	3365.222
85.470	23.417	3477.407	3358.183
86.485	23.400	3470.683	3351.232
87.500	23.329	3471.517	3350.527
88.516	23.515	3471.507	3353.929
89.531	24.264	3469.160	3365.832
90.547	25.295	3461.735	3378.119
91.562	25.758	3215.306	3145.697
92.578	23.809	2943.543	2848.140
93.593	23.358	2903.373	2801.930
94.608	23.482	2897.465	2798.087
95.624	23.498	2898.065	2798.806
96.639	23.519	2897.862	2798.828
97.655	23.641	2896.971	2799.790
98.670	23.701	2891.583	2795.427
99.685	23.724	2889.647	2793.792
100.701	23.412	2888.298	2787.415
101.716	23.360	2881.883	2780.276
102.732	23.359	2880.495	2778.800
103.747	24.013	2883.580	2792.048
104.763	26.956	2890.847	2845.706
105.778	24.474	2823.426	2740.732
106.793	22.239	2765.494	2650.351
107.809	22.063	2778.369	2659.869
108.824	33.778	1597.521	1631.856
109.840	17.028	240.789	223.799
110.855	-13.085	67.977	51.711
111.871	-32.646	49.752	32.348
112.886	-69.285	47.433	21.194
113.901	-62.668	44.964	21.707
114.917	19.782	44.113	41.664
115.932	33.664	43.061	43.946
116.948	29.387	42.471	42.352
117.963	26.939	41.960	41.278
118.978	29.227	41.499	41.342
