DTS Sentinel unit serial number:	SN208115Multiplexer serial number:	no multiplexerHardware model number:	SEN2MRSoftware version number:	3.7data status	okinstallation	Posledni klalibrace stavebkadifferential loss correction	single-endedforward channel	Posledni klalibrace stavebkareverse channel	N/Adate	2016/05/20time	08:28:43forward acquisition time	30.21reverse acquisition time	NaNgamma	501.9000k internal	0.1926k external	0.1926temperature offset calibration	0.9869default loss term (dB/km)	0.2890temperature slope calibration	0.6300multiplexer offset coefficient	0.0000multiplexer slope coefficient	0.0000fibre end	NaNT internal ref (°C)	25.48T ext. ref 1 (°C)	0.73T ext. ref 2 (°C)	0.38length (m)	temperature (°C)	Stokes	anti-Stokes-373.500	-145.143	-0.603	-0.063
-372.485	-27.631	-0.184	-0.125
-371.469	-72.029	-0.539	-0.233
-370.454	445.592	-0.372	-0.973
-369.438	-115.565	-0.251	-0.055
-368.423	-81.456	1.018	-0.390
-367.407	-59.111	-0.541	-0.272
-366.392	-156.449	-0.811	-0.058
-365.377	693.487	0.125	0.390
-364.361	-7.709	0.360	-0.285
-363.346	115.049	0.471	0.679
-362.330	-0.459	0.307	-0.256
-361.315	-164.241	0.846	0.044
-360.300	-35.904	0.564	0.357
-359.284	800.000	0.149	0.530
-358.269	421.828	-0.325	0.830
-357.253	113.754	-0.271	0.389
-356.238	93.447	0.322	-0.430
-355.222	-63.777	-0.520	0.248
-354.207	-148.856	0.160	-0.015
-353.192	-71.569	-0.468	-0.204
-352.176	-91.059	0.700	0.233
-351.161	13.676	0.213	0.194
-350.145	-21.463	-0.442	-0.316
-349.130	100.768	-0.202	0.277
-348.115	-158.076	0.609	0.041
-347.099	30.076	-0.018	0.018
-346.084	-200.000	-0.028	-0.515
-345.068	152.888	0.635	-1.025
-344.053	-200.000	-0.095	-0.656
-343.037	-91.369	-0.389	-0.129
-342.022	-200.000	0.092	0.971
-341.007	-200.000	-0.116	0.913
-339.991	-136.806	-0.676	0.089
-338.976	244.210	0.267	-0.530
-337.960	245.927	0.216	-0.431
-336.945	-116.795	-0.584	-0.124
-335.929	71.883	-0.580	-0.710
-334.914	9.145	-0.076	-0.067
-333.899	116.658	0.388	0.562
-332.883	-138.084	1.181	0.151
-331.868	59.435	-0.062	0.072
-330.852	-43.950	0.367	0.215
-329.837	-17.991	0.153	0.112
-328.822	48.022	-0.385	0.423
-327.806	-156.924	0.343	-0.024
-326.791	209.709	0.064	0.120
-325.775	-75.054	-0.634	0.264
-324.760	-27.714	-0.428	0.291
-323.744	26.424	0.428	0.420
-322.729	461.891	0.313	-0.829
-321.714	-53.671	-0.260	0.138
-320.698	-77.090	-0.940	0.381
-319.683	-112.487	0.359	0.083
-318.667	-105.866	0.121	0.032
-317.652	-99.915	0.105	0.030
-316.637	-142.865	1.055	-0.117
-315.621	-105.728	-0.444	-0.116
-314.606	800.000	-0.253	-0.907
-313.590	-200.000	-0.048	-0.396
-312.575	-200.000	0.072	0.836
-311.559	66.564	-0.349	-0.418
-310.544	-139.389	0.330	-0.041
-309.529	-120.064	0.852	-0.168
-308.513	14.153	0.575	0.525
-307.498	54.399	0.286	0.324
-306.482	3.636	0.428	-0.366
-305.467	245.839	-0.319	-0.636
-304.451	194.891	0.251	-0.451
-303.436	-105.814	0.396	-0.103
-302.421	-35.166	0.477	-0.303
-301.405	-69.810	0.875	0.388
-300.390	-49.629	-0.527	-0.292
-299.374	-177.783	0.871	0.024
-298.359	-82.612	0.302	-0.114
-297.344	4.202	0.341	-0.292
-296.328	-106.564	0.515	-0.133
-295.313	-200.000	0.075	0.463
-294.297	1.402	-0.191	0.161
-293.282	-200.000	0.007	0.503
-292.266	-67.362	0.622	0.284
-291.251	281.100	-0.192	-0.407
-290.236	-113.742	-1.239	0.279
-289.220	-73.284	-0.885	0.376
-288.205	-38.849	-0.327	-0.201
-287.189	800.000	-0.078	-0.382
-286.174	-152.877	0.800	-0.065
-285.159	291.267	0.133	-0.287
-284.143	127.601	0.312	-0.466
-283.128	-200.000	-0.252	-0.001
-282.112	71.109	-0.693	-0.844
-281.097	-27.366	-0.210	0.142
-280.081	-200.000	0.077	0.812
-279.066	367.338	-0.300	-0.718
-278.051	70.166	-0.337	-0.409
-277.035	26.878	-0.364	0.358
-276.020	-155.839	0.625	0.045
-275.004	280.645	0.293	-0.619
-273.989	81.557	0.312	0.396
-272.973	-26.621	-0.881	0.602
-271.958	51.384	0.603	0.672
-270.943	-57.157	0.735	-0.376
-269.927	800.000	0.118	-0.502
-268.912	20.721	0.378	0.359
-267.896	-168.995	-0.716	-0.030
-266.881	81.730	-0.445	-0.566
-265.866	-5.657	0.333	0.267
-264.850	-146.653	-0.382	-0.038
-263.835	-154.406	-0.640	0.049
-262.819	-80.189	0.687	0.267
-261.804	-200.000	0.022	0.239
-260.788	-25.041	-0.696	0.481
-259.773	800.000	0.068	0.307
-258.758	169.537	-0.254	-0.428
-257.742	35.070	-0.177	0.182
-256.727	56.423	-0.256	-0.293
-255.711	37.952	-0.302	0.314
-254.696	363.562	0.113	0.268
-253.680	-179.601	-0.388	-0.010
-252.665	78.401	-0.271	0.340
-251.650	65.996	-0.423	0.504
-250.634	-116.748	-0.446	0.094
-249.619	800.000	0.115	0.473
-248.603	38.350	-0.285	-0.297
-247.588	40.056	-0.364	0.384
-246.573	319.316	0.304	-0.681
-245.557	-73.095	-1.401	-0.596
-244.542	-66.833	0.541	0.248
-243.526	-200.000	-0.000	-0.066
-242.511	-79.804	-0.375	0.146
-241.495	-113.686	-0.681	0.153
-240.480	12.860	-0.510	-0.461
-239.465	-37.020	0.100	-0.062
-238.449	425.935	0.239	0.611
-237.434	-200.000	0.056	-0.682
-236.418	-102.423	-0.326	-0.090
-235.403	-2.407	0.267	-0.218
-234.388	43.192	-0.557	-0.595
-233.372	-158.417	-0.650	0.043
-232.357	165.874	-0.341	0.569
-231.341	-200.000	0.017	-0.089
-230.326	73.713	-0.177	-0.217
-229.310	222.628	0.419	0.796
-228.295	222.364	0.103	0.196
-227.280	800.000	-0.162	-0.600
-226.264	800.000	0.140	-0.509
-225.249	-52.400	0.289	0.156
-224.233	-17.391	0.407	0.299
-223.218	-7.533	0.380	0.300
-222.202	139.697	-0.523	0.810
-221.187	-33.281	-0.347	0.224
-220.172	-0.412	-0.426	0.354
-219.156	148.181	-0.343	0.545
-218.141	-200.000	-0.058	0.425
-217.125	25.978	0.407	-0.397
-216.110	-54.614	0.273	0.143
-215.095	-200.000	-0.014	0.099
-214.079	-200.000	0.046	-0.307
-213.064	-200.000	-0.178	-1.103
-212.048	-117.196	-0.249	-0.052
-211.033	-88.414	0.504	0.174
-210.017	4.932	-0.068	-0.059
-209.002	-22.712	-0.298	-0.210
-207.987	-200.000	0.023	0.000
-206.971	-200.000	-0.003	0.761
-205.956	-134.558	0.501	0.070
-204.940	246.470	-0.296	-0.588
-203.925	1.964	-0.553	0.466
-202.910	-184.785	-0.694	0.012
-201.894	50.222	0.557	0.616
-200.879	249.184	-0.232	0.463
-199.863	-11.162	-0.515	-0.396
-198.848	-200.000	-0.024	0.624
-197.832	610.327	-0.200	0.590
-196.817	-41.712	-0.147	-0.088
-195.802	-117.016	-0.496	0.104
-194.786	-160.071	0.125	0.008
-193.771	-88.183	-0.202	0.070
-192.755	626.422	0.097	-0.289
-191.740	-200.000	-0.092	0.788
-190.724	-0.171	0.257	-0.213
-189.709	-200.000	-0.128	-0.702
-188.694	-114.459	0.527	-0.116
-187.678	800.000	-0.145	-0.700
-186.663	-190.809	-0.655	-0.008
-185.647	-87.557	0.823	0.287
-184.632	-64.301	0.758	0.358
-183.617	-200.000	0.015	-0.222
-182.601	30.383	-0.205	0.205
-181.586	-24.081	0.530	0.369
-180.570	800.000	-0.207	-0.918
-179.555	-44.589	-0.472	0.274
-178.539	-200.000	-0.073	0.454
-177.524	-45.791	0.206	0.118
-176.509	697.690	0.136	0.422
-175.493	-166.185	0.607	0.029
-174.478	-162.618	0.472	0.026
-173.462	197.342	0.001	-0.002
-172.447	240.158	0.248	0.486
-171.432	-20.589	0.387	-0.277
-170.416	800.000	0.199	-1.030
-169.401	300.742	0.261	-0.567
-168.385	62.062	0.249	0.291
-167.370	-200.000	0.012	0.237
-166.354	20.145	0.128	-0.121
-165.339	-200.000	-0.057	0.307
-164.324	-74.755	-0.702	0.292
-163.308	-124.371	0.439	0.079
-162.293	35.641	0.337	0.345
-161.277	-20.799	0.278	0.199
-160.262	145.638	0.368	-0.578
-159.246	-46.533	0.212	-0.121
-158.231	-64.795	0.767	-0.359
-157.216	-122.287	0.717	-0.134
-156.200	215.447	-0.322	-0.600
-155.185	-200.000	-0.129	-0.711
-154.169	-200.000	-0.014	-0.742
-153.154	136.985	-0.250	-0.383
-152.139	800.000	-0.238	0.881
-151.123	355.263	-0.113	-0.266
-150.108	-153.173	-0.460	-0.037
-149.092	-54.313	0.296	0.156
-148.077	6.541	-0.307	0.266
-147.061	-39.973	-0.262	0.159
-146.046	505.047	0.097	0.265
-145.031	13.665	0.538	0.487
-144.015	292.247	-0.146	-0.314
-143.000	800.000	-0.123	0.517
-141.984	-22.393	0.212	0.149
-140.969	-111.782	0.656	0.152
-139.954	133.408	0.351	0.532
-138.938	-132.772	1.024	0.149
-137.923	-44.511	0.459	0.266
-136.907	-77.614	0.764	-0.305
-135.892	-111.658	0.983	0.229
-134.876	-3.552	0.166	-0.134
-133.861	46.544	0.349	-0.378
-132.846	9.579	-0.110	-0.097
-131.830	-65.527	-0.383	0.178
-130.815	-102.501	0.657	-0.181
-129.799	61.543	-0.114	0.132
-128.784	-98.249	0.254	-0.075
-127.768	-104.321	1.103	-0.294
-126.753	62.059	0.310	0.361
-125.738	504.041	-0.131	0.358
-124.722	4.745	-0.354	-0.303
-123.707	-200.000	0.028	-0.151
-122.691	-47.431	0.427	-0.241
-121.676	-71.359	-0.393	-0.170
-120.661	-39.740	0.872	0.529
-119.645	148.277	0.528	-0.835
-118.630	-141.941	-0.274	-0.031
-117.614	-83.559	0.111	-0.041
-116.599	291.899	-0.180	0.385
-115.583	-200.000	0.025	-0.541
-114.568	353.021	0.199	-0.465
-113.553	-65.890	0.711	0.328
-112.537	-88.360	116.378	40.059
-111.522	64.651	472.102	556.095
-110.506	379.804	74.201	179.040
-109.491	13.586	30.770	27.816
-108.476	30.671	6.990	6.972
-107.460	478.231	-0.771	-2.057
-106.445	-0.788	-1.874	-1.544
-105.429	-200.000	-0.040	0.419
-104.414	-168.937	0.898	-0.038
-103.398	264.192	-0.733	-1.498
-102.383	-172.168	0.173	0.006
-101.368	800.000	-0.364	-1.302
-100.352	36.130	-0.534	-0.549
-99.337	-50.730	1.027	0.559
-98.321	-141.721	1.232	-0.141
-97.306	-43.361	-1.637	-0.959
-96.290	-200.000	-0.010	-0.268
-95.275	31.524	1.645	1.648
-94.260	800.000	0.134	-0.616
-93.244	194.374	-0.917	-1.631
-92.229	-200.000	0.024	0.669
-91.213	-60.582	-0.438	-0.215
-90.198	1.828	-1.688	-1.415
-89.183	20.506	0.469	-0.441
-88.167	-200.000	0.086	-0.794
-87.152	64.922	-1.148	-1.353
-86.136	123.914	0.538	-0.790
-85.121	-69.742	1.645	0.725
-84.105	727.632	-0.362	-1.139
-83.090	91.122	-0.922	-1.208
-82.075	-106.824	1.400	0.356
-81.059	-97.144	0.326	-0.098
-80.044	-65.705	-0.879	-0.407
-79.028	264.859	0.140	0.285
-78.013	-102.733	0.539	0.147
-76.998	-83.413	-1.026	-0.379
-75.982	383.434	-0.189	-0.457
-74.967	-57.270	0.663	0.337
-73.951	-71.774	-0.762	-0.327
-72.936	-200.000	-0.001	-0.694
-71.920	-174.312	-0.439	0.014
-70.905	-60.660	0.467	0.228
-69.890	275.564	-0.504	-1.049
-68.874	-79.325	0.204	-0.080
-67.859	-144.464	1.383	-0.145
-66.843	-109.330	1.034	0.251
-65.828	-32.211	1.010	-0.654
-64.812	-41.527	1.853	1.103
-63.797	-32.891	0.896	0.577
-62.782	54.451	1.238	1.389
-61.766	0.801	2.677	2.226
-60.751	76.841	2.460	3.046
-59.735	-14.522	3.098	2.312
-58.720	15.775	4.196	3.837
-57.705	7.674	6.932	6.029
-56.689	21.636	8.714	8.248
-55.674	-41.046	37.551	22.441
-54.658	-38.643	100.434	61.365
-53.643	-11.819	1071.245	815.299
-52.627	15.355	10335.738	9425.750
-51.612	32.511	11543.080	11606.153
-50.597	28.449	9028.124	8878.575
-49.581	25.545	8843.212	8556.830
-48.566	24.933	8804.487	8489.735
-47.550	25.598	8771.431	8489.343
-46.535	25.590	8743.706	8461.832
-45.519	25.566	8721.089	8438.485
-44.504	25.659	8695.943	8418.290
-43.489	25.571	8681.669	8399.995
-42.473	25.495	8674.759	8389.455
-41.458	25.470	8669.125	8382.491
-40.442	25.529	8658.232	8374.474
-39.427	25.473	8651.981	8365.482
-38.412	25.453	8642.423	8355.024
-37.396	25.493	8636.183	8350.546
-36.381	25.519	8633.991	8349.365
-35.365	25.584	8619.888	8338.480
-34.350	25.564	8610.050	8327.731
-33.334	25.534	8604.283	8320.469
-32.319	25.545	8598.206	8314.800
-31.304	25.535	8599.123	8314.938
-30.288	25.515	8596.809	8311.465
-29.273	25.492	8587.605	8301.204
-28.257	25.511	8576.095	8290.668
-27.242	25.492	8568.951	8282.619
-26.227	25.484	8563.559	8276.753
-25.211	25.474	8552.435	8265.210
-24.196	25.444	8550.985	8262.134
-23.180	25.509	8546.611	8260.630
-22.165	25.514	8537.871	8252.126
-21.149	25.550	8536.945	8252.632
-20.134	25.505	8532.647	8246.097
-19.119	25.524	8521.577	8236.005
-18.103	25.506	8513.363	8226.938
-17.088	25.484	8505.326	8217.876
-16.072	25.462	8504.629	8215.887
-15.057	25.458	8495.549	8206.623
-14.041	25.398	8489.292	8197.522
-13.026	25.358	8484.501	8190.775
-12.011	25.429	8485.825	8195.029
-10.995	25.478	8479.104	8190.501
-9.980	25.452	8476.952	8186.947
-8.964	25.433	8465.570	8174.804
-7.949	25.442	8459.085	8168.686
-6.934	25.401	8460.922	8168.284
-5.918	25.444	8456.288	8165.465
-4.903	25.462	8447.269	8157.339
-3.887	25.398	8440.433	8147.473
-2.872	25.353	8437.970	8142.745
-1.856	25.388	8428.493	8134.932
-0.841	25.434	8423.451	8131.877
0.174	23.569	8455.432	8195.207
1.190	23.689	8230.711	7982.543
2.205	22.272	7740.800	7446.424
3.221	22.572	7571.208	7295.537
4.236	25.623	6835.457	6701.424
5.251	27.994	4657.221	4626.514
6.267	23.625	3787.820	3671.477
7.282	24.438	3703.765	3606.485
8.298	24.452	3697.636	3600.648
9.313	24.688	3694.449	3602.203
10.329	24.749	3691.771	3600.682
11.344	24.720	3687.710	3595.968
12.359	24.832	3684.420	3594.878
13.375	24.787	3689.018	3598.301
14.390	24.723	3685.727	3593.645
15.406	24.678	3682.592	3589.526
16.421	24.636	3679.964	3585.943
17.437	24.633	3680.662	3586.423
18.452	24.653	3679.762	3585.794
19.467	24.626	3678.935	3584.277
20.483	24.708	3677.451	3584.350
21.498	24.816	3674.625	3583.627
22.514	24.762	3673.719	3581.506
23.529	24.705	3675.159	3581.606
24.544	24.460	3673.484	3574.847
25.560	24.176	3667.840	3563.465
26.575	23.312	3660.726	3538.948
27.591	23.445	3662.583	3543.281
28.606	22.664	3657.242	3522.193
29.622	21.637	3649.956	3494.316
30.637	21.005	3644.536	3476.231
31.652	20.501	3645.937	3467.242
32.668	22.239	3659.701	3515.365
33.683	24.285	3666.049	3562.703
34.699	24.078	3666.131	3558.462
35.714	27.249	3687.339	3643.249
36.729	28.821	3683.986	3671.589
37.745	25.010	3656.247	3567.179
38.760	23.545	3643.709	3525.374
39.776	23.499	3641.249	3521.921
40.791	23.322	3642.154	3519.099
41.807	23.450	3642.226	3521.596
42.822	23.518	3643.464	3523.995
43.837	23.540	3646.774	3527.487
44.853	23.642	3644.892	3527.564
45.868	23.929	3643.097	3531.455
46.884	23.242	3637.935	3512.524
47.899	22.018	3634.168	3484.180
48.915	21.718	3630.069	3474.084
49.930	21.388	3621.577	3459.202
50.945	21.201	3618.718	3452.582
51.961	21.447	3621.937	3460.443
52.976	23.470	3633.364	3511.774
53.992	23.481	3622.890	3501.711
55.007	22.472	3620.167	3478.796
56.022	21.771	3618.442	3462.979
57.038	21.857	3614.365	3460.654
58.053	21.950	3613.736	3461.760
59.069	22.775	3616.121	3480.358
60.084	22.732	3605.070	3468.717
61.100	21.051	3597.200	3427.614
62.115	20.885	3595.548	3422.596
63.130	23.150	3573.758	3446.383
64.146	23.573	3557.667	3439.015
65.161	23.542	3553.780	3434.511
66.177	23.439	3553.088	3431.678
67.192	23.533	3551.889	3432.209
68.207	23.550	3547.347	3428.011
69.223	23.474	3544.898	3424.010
70.238	23.545	3539.584	3420.112
71.254	23.559	3536.354	3417.125
72.269	23.676	3535.817	3418.747
73.285	23.650	3532.131	3414.533
74.300	23.669	3532.460	3415.072
75.315	24.130	3529.156	3420.694
76.331	24.309	3527.857	3422.758
77.346	23.889	3518.597	3405.492
78.362	23.360	3507.519	3384.414
79.377	23.246	3504.434	3379.080
80.393	23.302	3498.962	3374.747
81.408	23.433	3493.270	3371.641
82.423	23.582	3487.159	3368.460
83.439	23.441	3491.705	3369.991
84.454	23.550	3488.746	3369.091
85.470	23.472	3483.174	3362.075
86.485	23.457	3478.832	3357.450
87.500	23.345	3481.636	3357.865
88.516	23.419	3482.063	3359.556
89.531	24.159	3477.839	3369.501
90.547	24.600	3478.382	3378.321
91.562	23.873	3469.125	3355.304
92.578	23.354	3457.986	3334.508
93.593	23.097	3455.465	3327.056
94.608	23.148	3452.213	3324.756
95.624	23.233	3453.121	3327.102
96.639	23.268	3451.107	3325.670
97.655	23.243	3448.231	3322.295
98.670	23.313	3444.577	3319.960
99.685	23.213	3441.480	3314.928
100.701	23.072	3439.293	3310.013
101.716	22.981	3433.365	3302.450
102.732	22.953	3431.561	3300.042
103.747	23.441	3435.474	3312.907
104.763	25.501	3443.632	3359.614
105.778	23.102	3422.558	3293.778
106.793	21.564	3405.962	3248.826
107.809	20.403	3454.864	3273.197
108.824	32.697	2029.086	2059.072
109.840	16.279	299.309	276.723
110.855	-7.619	75.341	59.588
111.871	3.080	51.867	44.136
112.886	-56.332	49.201	25.447
113.901	-118.517	46.795	9.540
114.917	6.979	45.519	39.721
115.932	26.146	45.075	44.114
116.948	30.046	43.702	43.702
117.963	28.196	43.189	42.750
118.978	28.866	42.306	42.029
