DTS Sentinel unit serial number:	SN208115Multiplexer serial number:	no multiplexerHardware model number:	SEN2MRSoftware version number:	3.7data status	okinstallation	Posledni klalibrace stavebkadifferential loss correction	single-endedforward channel	Posledni klalibrace stavebkareverse channel	N/Adate	2016/05/20time	08:27:42forward acquisition time	30.24reverse acquisition time	NaNgamma	501.9000k internal	0.1929k external	0.1929temperature offset calibration	0.9869default loss term (dB/km)	0.2890temperature slope calibration	0.6300multiplexer offset coefficient	0.0000multiplexer slope coefficient	0.0000fibre end	NaNT internal ref (°C)	25.45T ext. ref 1 (°C)	0.73T ext. ref 2 (°C)	0.37length (m)	temperature (°C)	Stokes	anti-Stokes-373.500	-95.736	0.210	-0.065
-372.485	-117.502	0.449	0.094
-371.469	800.000	-0.120	0.472
-370.454	-83.760	0.449	-0.166
-369.438	57.786	0.610	-0.701
-368.423	8.679	-0.146	0.129
-367.407	800.000	0.012	-0.053
-366.392	131.311	0.547	-0.829
-365.377	-200.000	-0.043	0.538
-364.361	-183.415	0.536	0.010
-363.346	-200.000	-0.010	0.187
-362.330	-28.509	-0.226	-0.152
-361.315	-143.157	0.677	-0.075
-360.300	248.569	0.264	-0.528
-359.284	47.355	0.491	-0.537
-358.269	-28.794	0.432	0.291
-357.253	-51.768	0.416	0.226
-356.238	-46.669	-0.406	0.232
-355.222	35.982	0.163	-0.169
-354.207	54.638	0.235	-0.266
-353.192	-92.824	0.755	-0.245
-352.176	-19.779	0.620	0.448
-351.161	28.677	0.721	-0.716
-350.145	9.455	0.527	0.468
-349.130	-96.985	0.654	-0.198
-348.115	-62.233	0.225	-0.109
-347.099	126.394	0.194	-0.290
-346.084	-55.948	0.707	-0.367
-345.068	-87.409	0.331	-0.116
-344.053	-200.000	-0.087	-0.769
-343.037	-160.983	0.649	0.039
-342.022	243.280	-0.184	0.365
-341.007	800.000	-0.121	0.466
-339.991	800.000	-0.056	-0.192
-338.976	170.945	-0.270	-0.458
-337.960	-200.000	-0.621	-0.001
-336.945	-5.941	0.252	-0.202
-335.929	34.300	0.647	0.662
-334.914	9.634	-0.769	0.683
-333.899	-126.520	0.669	-0.114
-332.883	-131.826	-0.551	0.083
-331.868	-81.237	0.292	0.112
-330.852	47.303	0.313	0.342
-329.837	-200.000	-0.056	0.415
-328.822	-13.564	0.348	0.263
-327.806	-200.000	-0.546	0.002
-326.791	-53.489	-0.957	-0.510
-325.775	-56.966	0.666	-0.342
-324.760	-93.174	0.431	0.139
-323.744	-200.000	0.056	0.647
-322.729	167.161	-0.157	-0.263
-321.714	-80.721	1.183	0.456
-320.698	-134.965	-0.423	0.059
-319.683	79.750	-0.363	0.458
-318.667	-200.000	-0.009	0.181
-317.652	495.870	-0.090	-0.245
-316.637	-110.626	-0.528	-0.126
-315.621	252.807	0.273	-0.551
-314.606	13.107	-0.310	0.281
-313.590	-85.379	-0.655	0.237
-312.575	561.804	0.045	-0.128
-311.559	-70.264	0.601	-0.265
-310.544	-132.211	-1.022	0.152
-309.529	-48.731	0.404	-0.226
-308.513	800.000	-0.037	0.171
-307.498	-98.282	-0.369	-0.109
-306.482	-114.978	0.997	0.218
-305.467	800.000	-0.097	-0.489
-304.451	-155.359	-0.596	-0.044
-303.436	-76.566	0.771	-0.314
-302.421	339.169	0.327	-0.753
-301.405	-83.831	0.583	-0.215
-300.390	-35.879	0.311	0.196
-299.374	-150.613	-0.664	-0.058
-298.359	148.412	0.311	-0.495
-297.344	95.347	-0.247	-0.331
-296.328	119.573	0.285	-0.415
-295.313	-107.213	0.287	0.073
-294.297	196.696	0.325	-0.583
-293.282	-55.260	0.409	0.214
-292.266	356.278	0.213	0.502
-291.251	-89.772	-0.348	0.118
-290.236	-5.685	-0.647	0.518
-289.220	249.550	-0.298	0.596
-288.205	-159.391	0.691	-0.044
-287.189	-200.000	-0.032	0.315
-286.174	-49.346	-0.420	-0.233
-285.159	159.020	0.170	0.279
-284.143	396.033	-0.066	-0.164
-283.128	112.325	0.370	0.526
-282.112	-10.008	0.392	0.304
-281.097	-29.882	-0.848	0.563
-280.081	182.848	0.298	0.519
-279.066	-115.178	0.234	-0.051
-278.051	224.251	-0.192	-0.366
-277.035	-112.375	-0.630	-0.145
-276.020	-61.250	0.786	-0.385
-275.004	383.904	0.420	-1.023
-273.989	800.000	-0.115	0.461
-272.973	-89.336	0.998	-0.340
-271.958	51.596	0.156	0.173
-270.943	800.000	0.109	0.367
-269.927	75.733	0.185	0.229
-268.912	151.112	-0.476	0.763
-267.896	156.961	-0.013	0.022
-266.881	-53.969	-0.921	-0.488
-265.866	800.000	0.117	0.387
-264.850	-200.000	0.062	-0.471
-263.835	-58.186	-0.490	-0.248
-262.819	-114.853	0.459	-0.101
-261.804	800.000	-0.075	-0.299
-260.788	-1.365	-0.550	-0.453
-259.773	-31.161	-0.776	0.510
-258.758	-200.000	0.011	0.337
-257.742	-48.675	0.357	0.200
-256.727	144.497	0.215	0.338
-255.711	-135.198	0.203	0.028
-254.696	-169.594	-1.004	-0.041
-253.680	12.002	-0.309	-0.278
-252.665	-47.100	0.713	0.404
-251.650	-143.309	0.702	0.077
-250.634	-200.000	-0.121	0.721
-249.619	-149.605	-0.028	-0.003
-248.603	-92.886	-0.566	0.182
-247.588	220.248	-0.284	0.536
-246.573	-84.108	0.515	0.189
-245.557	40.922	-0.661	-0.698
-244.542	-129.149	1.162	0.186
-243.526	-200.000	-0.014	0.255
-242.511	99.124	0.608	-0.824
-241.495	-111.231	-0.573	-0.135
-240.480	392.949	-0.228	-0.560
-239.465	-200.000	-0.035	-0.757
-238.449	385.428	-0.162	-0.394
-237.434	-200.000	0.010	-0.254
-236.418	147.090	0.123	-0.194
-235.403	267.645	0.199	-0.410
-234.388	-117.293	0.195	-0.041
-233.372	-200.000	0.839	0.004
-232.357	197.141	0.134	0.240
-231.341	-200.000	-0.061	-0.572
-230.326	228.257	-0.142	0.273
-229.310	71.799	0.455	0.555
-228.295	5.628	-0.590	-0.509
-227.280	87.523	0.247	0.320
-226.264	159.676	0.200	-0.327
-225.249	-34.560	0.288	-0.184
-224.233	-200.000	-0.005	0.125
-223.218	-177.768	-0.164	0.004
-222.202	79.299	0.268	-0.337
-221.187	-176.809	-0.708	0.020
-220.172	-200.000	-0.032	0.510
-219.156	29.703	-0.450	-0.448
-218.141	-110.472	-0.443	-0.106
-217.125	-51.261	0.243	-0.132
-216.110	-96.991	-0.492	-0.149
-215.095	5.004	-0.439	-0.377
-214.079	-19.993	0.006	-0.005
-213.064	-8.176	-0.445	0.349
-212.048	-200.000	0.033	0.246
-211.033	254.690	0.200	0.402
-210.017	-200.000	-0.038	-0.311
-209.002	800.000	-0.056	0.289
-207.987	-153.671	0.371	-0.029
-206.971	-56.082	-0.509	-0.263
-205.956	161.068	0.030	0.049
-204.940	-110.115	0.361	0.087
-203.925	190.535	-0.132	0.233
-202.910	-39.163	0.089	0.054
-201.894	-96.151	0.327	0.100
-200.879	-200.000	0.040	0.836
-199.863	66.940	-0.262	0.312
-198.848	-150.381	0.537	-0.047
-197.832	-60.224	-0.095	0.047
-196.817	107.590	-0.398	-0.555
-195.802	-94.544	-0.726	-0.228
-194.786	-200.000	-0.028	0.552
-193.771	800.000	-0.038	0.184
-192.755	-200.000	-0.050	0.874
-191.740	79.404	-0.129	0.162
-190.724	-200.000	0.018	-0.396
-189.709	-200.000	0.038	-0.752
-188.694	-8.055	-0.387	-0.303
-187.678	-116.639	0.318	0.067
-186.663	-69.183	1.145	-0.509
-185.647	-59.744	0.440	-0.218
-184.632	18.819	0.760	-0.709
-183.617	-2.817	0.210	0.171
-182.601	-116.154	0.883	0.188
-181.586	92.020	-0.473	-0.624
-180.570	365.537	0.101	-0.240
-179.555	598.118	-0.117	0.343
-178.539	-39.269	-0.683	-0.416
-177.524	94.377	-0.338	-0.449
-176.509	147.710	-0.544	0.860
-175.493	800.000	0.113	0.450
-174.478	-26.070	0.630	-0.431
-173.462	-200.000	-0.046	-0.528
-172.447	239.157	0.062	-0.122
-171.432	766.270	-0.136	0.436
-170.416	258.186	0.285	0.578
-169.401	-56.882	-0.607	-0.311
-168.385	343.430	-0.101	-0.233
-167.370	6.671	0.641	0.555
-166.354	-77.542	0.320	-0.128
-165.339	-100.948	0.691	0.195
-164.324	793.195	0.137	0.444
-163.308	313.747	0.295	0.653
-162.293	-14.177	0.184	0.138
-161.277	-188.034	-0.437	-0.006
-160.262	-78.358	-0.238	0.094
-159.246	-81.261	-0.841	-0.320
-158.231	-60.975	-0.916	-0.448
-157.216	-105.215	-0.605	0.159
-156.200	51.808	-0.348	0.386
-155.185	-85.929	-0.116	-0.041
-154.169	-110.076	-0.705	-0.169
-153.154	-15.367	-0.849	0.630
-152.139	-47.885	-0.546	0.306
-151.123	800.000	-0.109	-0.433
-150.108	-35.732	0.322	0.203
-149.092	-28.221	-0.238	-0.159
-148.077	-79.206	-1.099	0.430
-147.061	-81.892	-0.177	-0.067
-146.046	-104.483	0.235	-0.062
-145.031	58.740	-0.509	0.584
-144.015	50.853	0.232	0.256
-143.000	121.655	-0.214	0.313
-141.984	81.600	0.201	0.254
-140.969	-133.420	-0.667	-0.096
-139.954	31.308	-0.188	0.188
-138.938	-121.837	0.427	0.081
-137.923	-130.140	0.743	-0.116
-136.907	278.808	-0.121	0.254
-135.892	-77.522	-0.682	-0.273
-134.876	234.100	0.176	0.341
-133.861	-39.673	-0.180	-0.109
-132.846	-148.087	-0.142	0.013
-131.830	23.926	-0.479	-0.460
-130.815	-90.036	0.573	-0.192
-129.799	74.242	0.323	0.397
-128.784	-200.000	-0.029	-0.248
-127.768	-164.104	0.453	0.024
-126.753	-200.000	-0.047	0.575
-125.738	-200.000	-0.057	0.629
-124.722	-156.735	0.443	-0.031
-123.707	-200.000	-0.063	0.651
-122.691	266.101	-0.038	-0.079
-121.676	-184.021	0.943	0.018
-120.661	-166.582	0.451	-0.021
-119.645	800.000	0.292	1.016
-118.630	-61.561	-0.463	0.225
-117.614	-173.571	-0.431	-0.014
-116.599	-180.012	-0.259	0.006
-115.583	-50.815	-0.378	0.206
-114.568	-108.124	0.242	0.060
-113.553	-106.770	1.761	0.448
-112.537	-105.101	135.571	35.550
-111.522	14.782	515.710	468.937
-110.506	220.809	79.414	149.397
-109.491	6.066	31.504	27.128
-108.476	65.084	5.412	6.377
-107.460	-200.000	-0.431	-3.777
-106.445	129.769	-0.787	-1.177
-105.429	-44.119	1.012	0.588
-104.414	-200.000	-0.008	-0.626
-103.398	-6.284	-0.792	-0.628
-102.383	-171.564	0.440	0.016
-101.368	-27.625	-0.807	0.543
-100.352	-200.000	0.093	-0.800
-99.337	-110.913	1.341	-0.316
-98.321	-22.034	-0.618	-0.435
-97.306	-22.073	-1.826	-1.285
-96.290	17.749	0.252	0.233
-95.275	176.198	0.849	1.444
-94.260	-17.592	-0.318	0.232
-93.244	13.665	-0.717	-0.647
-92.229	-86.092	-0.609	0.216
-91.213	-106.451	-0.579	-0.148
-90.198	223.132	-0.735	-1.388
-89.183	399.281	-0.376	-0.924
-88.167	-155.864	-0.746	0.054
-87.152	440.132	-0.445	-1.144
-86.136	693.992	-0.170	-0.525
-85.121	-73.369	0.732	0.308
-84.105	375.346	-0.247	-0.592
-83.090	800.000	-0.452	-1.664
-82.075	-76.546	0.710	-0.287
-81.059	-131.711	0.285	-0.043
-80.044	233.407	-0.730	-1.407
-79.028	-44.330	0.864	-0.500
-78.013	-155.023	-0.310	0.023
-76.998	86.371	-0.277	-0.356
-75.982	-26.850	0.669	-0.453
-74.967	226.005	0.130	-0.246
-73.951	-79.977	-0.968	-0.374
-72.936	187.420	-0.331	-0.577
-71.920	-107.745	0.421	0.105
-70.905	-6.781	-0.502	-0.396
-69.890	-57.756	-0.886	-0.447
-68.874	-200.000	0.056	-0.658
-67.859	62.626	0.276	0.321
-66.843	-54.259	0.573	0.300
-65.828	-189.574	1.172	0.015
-64.812	-24.073	1.809	1.251
-63.797	-200.000	-0.114	1.338
-62.782	-21.559	1.722	1.215
-61.766	27.531	2.067	2.021
-60.751	49.138	2.270	2.481
-59.735	-19.272	3.203	2.301
-58.720	18.580	4.474	4.154
-57.705	15.225	6.503	5.918
-56.689	29.296	9.022	8.902
-55.674	-54.383	42.952	22.465
-54.658	-44.736	108.469	62.503
-53.643	-11.759	1061.687	807.181
-52.627	15.325	10311.124	9387.633
-51.612	32.440	11546.565	11587.927
-50.597	28.291	9025.348	8854.906
-49.581	25.435	8841.501	8537.173
-48.566	24.928	8801.497	8474.023
-47.550	25.551	8768.592	8471.717
-46.535	25.620	8740.602	8447.680
-45.519	25.616	8720.485	8427.738
-44.504	25.597	8699.343	8406.120
-43.489	25.545	8682.985	8387.573
-42.473	25.532	8675.297	8379.236
-41.458	25.540	8668.397	8372.628
-40.442	25.518	8658.371	8361.634
-39.427	25.552	8651.600	8356.381
-38.412	25.518	8644.061	8347.219
-37.396	25.513	8639.502	8342.292
-36.381	25.453	8638.961	8338.673
-35.365	25.460	8628.514	8328.610
-34.350	25.456	8616.644	8316.667
-33.334	25.435	8613.831	8312.697
-32.319	25.496	8603.013	8304.805
-31.304	25.492	8604.581	8305.858
-30.288	25.533	8600.723	8303.741
-29.273	25.543	8589.197	8292.814
-28.257	25.437	8581.371	8280.027
-27.242	25.476	8573.390	8273.836
-26.227	25.448	8567.077	8266.155
-25.211	25.454	8556.828	8256.241
-24.196	25.463	8553.811	8253.445
-23.180	25.504	8547.173	8248.680
-22.165	25.401	8541.360	8237.985
-21.149	25.474	8542.525	8242.202
-20.134	25.485	8536.252	8236.401
-19.119	25.464	8527.682	8226.871
-18.103	25.513	8517.475	8218.984
-17.088	25.445	8510.779	8209.074
-16.072	25.397	8509.466	8205.341
-15.057	25.416	8498.354	8195.178
-14.041	25.363	8492.078	8186.429
-13.026	25.370	8490.584	8185.005
-12.011	25.414	8491.496	8187.644
-10.995	25.419	8485.990	8182.281
-9.980	25.423	8484.199	8180.434
-8.964	25.359	8473.963	8167.338
-7.949	25.414	8465.104	8161.023
-6.934	25.389	8466.797	8161.255
-5.918	25.414	8460.475	8156.020
-4.903	25.356	8452.092	8144.996
-3.887	25.365	8446.805	8139.996
-2.872	25.410	8444.856	8139.892
-1.856	25.386	8438.156	8132.052
-0.841	25.410	8430.380	8125.391
0.174	23.525	8456.822	8182.307
1.190	23.554	8220.157	7954.310
2.205	22.317	7706.994	7404.783
3.221	22.783	7532.189	7255.934
4.236	25.777	6805.366	6667.794
5.251	29.358	4409.359	4406.757
6.267	23.910	3365.773	3262.831
7.282	24.507	3268.050	3178.716
8.298	24.729	3257.541	3172.351
9.313	25.007	3252.325	3172.109
10.329	25.016	3250.579	3170.441
11.344	25.277	3245.013	3169.535
12.359	25.118	3245.481	3167.012
13.375	25.057	3248.753	3168.978
14.390	25.161	3244.247	3166.317
15.406	25.146	3242.440	3164.139
16.421	25.052	3241.591	3161.510
17.437	25.001	3242.413	3161.269
18.452	25.107	3238.485	3159.191
19.467	25.153	3235.555	3157.015
20.483	25.165	3236.102	3157.630
21.498	25.221	3236.227	3158.610
22.514	25.246	3234.223	3156.970
23.529	25.192	3235.773	3157.382
24.544	25.201	3234.486	3156.150
25.560	24.958	3230.751	3148.063
26.575	24.116	3225.433	3127.780
27.591	24.148	3227.442	3130.179
28.606	23.403	3221.222	3110.784
29.622	21.901	3208.113	3071.407
30.637	20.911	3205.846	3051.586
31.652	20.935	3206.266	3052.283
32.668	22.475	3217.973	3090.649
33.683	24.662	3224.328	3135.471
34.699	24.258	3223.211	3127.091
35.714	27.161	3236.235	3191.231
36.729	28.349	3233.006	3208.964
37.745	24.469	3210.278	3117.878
38.760	22.993	3201.695	3083.372
39.776	23.104	3200.361	3083.925
40.791	23.364	3201.214	3089.189
41.807	23.232	3198.436	3084.052
42.822	22.675	3194.815	3070.633
43.837	22.309	3198.688	3067.766
44.853	22.535	3198.129	3071.083
45.868	22.789	3196.309	3073.679
46.884	22.264	3193.753	3061.851
47.899	21.736	3192.633	3051.357
48.915	21.707	3189.503	3047.722
49.930	21.652	3185.792	3043.069
50.945	21.414	3182.254	3035.382
51.961	21.755	3184.891	3043.758
52.976	23.675	3191.882	3084.086
53.992	23.422	3187.012	3074.805
55.007	22.842	3185.709	3063.239
56.022	22.090	3182.429	3046.773
57.038	21.915	3178.607	3039.921
58.053	22.159	3175.156	3040.753
59.069	22.974	3173.915	3053.691
60.084	22.973	3165.848	3045.783
61.100	21.853	3152.952	3013.786
62.115	23.175	3030.569	2918.759
63.130	26.361	2451.660	2404.024
64.146	24.814	2263.767	2200.466
65.161	24.917	2247.148	2185.489
66.177	24.910	2244.094	2182.340
67.192	24.925	2242.428	2180.810
68.207	24.989	2239.779	2178.933
69.223	25.213	2236.657	2178.554
70.238	25.189	2234.127	2175.705
71.254	25.091	2232.068	2172.398
72.269	25.294	2230.770	2173.534
73.285	25.218	2230.329	2172.083
74.300	25.388	2230.683	2174.410
75.315	25.793	2229.224	2177.848
76.331	25.956	2229.373	2179.906
77.346	25.516	2226.244	2171.371
78.362	25.061	2220.029	2159.677
79.377	24.928	2220.373	2158.298
80.393	25.038	2219.122	2158.333
81.408	25.313	2215.789	2158.337
82.423	25.148	2212.795	2153.330
83.439	25.103	2215.001	2154.838
84.454	25.088	2214.859	2154.422
85.470	25.050	2211.481	2150.583
86.485	25.135	2209.548	2149.641
87.500	25.028	2212.410	2151.043
88.516	25.005	2212.019	2150.292
89.531	25.403	2210.740	2153.786
90.547	25.725	2211.113	2157.961
91.562	25.226	2207.855	2148.647
92.578	24.920	2204.974	2142.041
93.593	24.717	2204.575	2139.106
94.608	24.714	2202.670	2137.134
95.624	24.632	2204.836	2138.155
96.639	24.795	2202.270	2137.541
97.655	24.815	2200.989	2136.453
98.670	24.949	2197.471	2134.560
99.685	24.713	2198.251	2132.375
100.701	24.769	2196.663	2131.427
101.716	24.618	2191.030	2124.055
102.732	24.496	2189.586	2121.099
103.747	25.036	2191.071	2128.940
104.763	26.652	2197.699	2154.748
105.778	24.599	2183.940	2116.588
106.793	23.476	2172.802	2092.318
107.809	23.571	2198.255	2117.874
108.824	35.270	1289.612	1324.734
109.840	18.992	198.149	185.894
110.855	-1.271	57.439	47.408
111.871	-56.637	42.216	21.732
112.886	-177.181	41.417	1.159
113.901	-11.300	40.429	31.087
114.917	27.741	39.102	38.554
115.932	27.190	38.983	38.318
116.948	28.785	37.488	37.174
117.963	22.002	37.355	35.652
118.978	33.243	36.322	36.896
