DTS Sentinel unit serial number:	SN208115Multiplexer serial number:	no multiplexerHardware model number:	SEN2MRSoftware version number:	3.7data status	okinstallation	Posledni klalibrace stavebkadifferential loss correction	single-endedforward channel	Posledni klalibrace stavebkareverse channel	N/Adate	2016/05/20time	08:28:13forward acquisition time	30.18reverse acquisition time	NaNgamma	501.9000k internal	0.1928k external	0.1928temperature offset calibration	0.9869default loss term (dB/km)	0.2890temperature slope calibration	0.6300multiplexer offset coefficient	0.0000multiplexer slope coefficient	0.0000fibre end	NaNT internal ref (°C)	25.46T ext. ref 1 (°C)	0.72T ext. ref 2 (°C)	0.38length (m)	temperature (°C)	Stokes	anti-Stokes-373.500	-200.000	-0.077	-0.470
-372.485	367.944	0.265	-0.635
-371.469	34.935	0.221	-0.228
-370.454	37.758	0.419	0.437
-369.438	68.632	-0.245	0.296
-368.423	-60.480	0.129	0.064
-367.407	800.000	0.072	-0.242
-366.392	-16.024	-0.608	0.453
-365.377	176.208	0.314	0.540
-364.361	-53.582	-0.309	0.165
-363.346	-162.164	0.604	0.034
-362.330	-66.684	-0.244	0.112
-361.315	-11.801	-0.622	-0.478
-360.300	-58.308	-0.621	0.315
-359.284	-48.181	-0.648	0.365
-358.269	285.603	0.222	0.475
-357.253	-92.565	-0.145	-0.047
-356.238	-22.902	-0.157	-0.111
-355.222	-179.662	-0.462	0.011
-354.207	0.189	-0.104	0.087
-353.192	-76.622	-0.392	-0.160
-352.176	-24.221	-0.355	-0.248
-351.161	-49.335	0.425	-0.237
-350.145	-49.565	-0.737	0.410
-349.130	-200.000	-0.006	-0.188
-348.115	-122.578	0.316	0.059
-347.099	27.320	0.474	0.467
-346.084	-200.000	0.098	-0.768
-345.068	-58.400	-0.458	-0.232
-344.053	-109.876	0.643	-0.156
-343.037	142.151	0.152	0.239
-342.022	258.402	-0.279	0.570
-341.007	-147.667	0.457	0.044
-339.991	-39.171	0.609	-0.373
-338.976	271.062	0.214	-0.445
-337.960	-131.094	0.792	-0.121
-336.945	-91.000	-0.201	0.067
-335.929	-27.613	-0.293	-0.199
-334.914	347.635	-0.201	-0.468
-333.899	-52.346	0.477	-0.257
-332.883	59.951	0.196	0.228
-331.868	-54.231	-0.574	0.304
-330.852	-110.282	-0.723	0.174
-329.837	-138.108	0.793	-0.101
-328.822	-200.000	-0.046	0.256
-327.806	-11.225	-0.058	0.045
-326.791	-61.049	0.523	-0.257
-325.775	380.561	0.222	0.540
-324.760	53.700	0.155	-0.175
-323.744	-165.173	0.421	0.021
-322.729	-97.753	1.044	-0.313
-321.714	-72.000	-0.292	0.126
-320.698	-200.000	-0.005	0.125
-319.683	-83.355	0.550	-0.205
-318.667	-45.236	0.224	-0.129
-317.652	16.720	0.434	0.403
-316.637	12.793	-0.267	0.242
-315.621	-200.000	-0.038	0.674
-314.606	109.330	0.289	-0.407
-313.590	-53.812	-0.455	-0.242
-312.575	50.822	0.446	0.497
-311.559	-86.734	0.392	0.139
-310.544	-13.418	-0.444	-0.337
-309.529	93.520	0.292	-0.389
-308.513	-200.000	-0.056	-0.431
-307.498	97.732	0.186	0.251
-306.482	113.784	0.245	-0.351
-305.467	-31.928	0.552	0.361
-304.451	2.724	0.206	-0.175
-303.436	241.916	-0.245	0.483
-302.421	-5.584	0.490	-0.393
-301.405	800.000	-0.142	-0.504
-300.390	410.290	-0.094	0.236
-299.374	76.397	0.762	0.949
-298.359	-124.807	0.516	-0.092
-297.344	-129.078	-1.210	-0.194
-296.328	205.893	0.326	0.599
-295.313	9.417	0.483	-0.428
-294.297	-165.849	-0.294	-0.014
-293.282	-145.222	-1.135	-0.117
-292.266	8.213	-0.322	-0.283
-291.251	-86.188	-0.418	-0.149
-290.236	-101.415	0.537	0.151
-289.220	79.485	0.607	0.765
-288.205	26.236	0.273	-0.267
-287.189	272.863	-0.300	0.627
-286.174	7.716	-0.593	0.520
-285.159	-32.729	0.364	-0.236
-284.143	-44.416	0.565	-0.329
-283.128	-200.000	0.159	0.879
-282.112	-36.055	-0.767	0.483
-281.097	-200.000	-0.775	0.001
-280.081	225.515	-0.231	0.442
-279.066	-132.525	-0.296	0.044
-278.051	-148.685	-0.373	-0.035
-277.035	-106.832	-0.384	0.098
-276.020	-74.657	0.634	-0.264
-275.004	80.583	-0.323	-0.408
-273.989	155.784	-0.144	-0.234
-272.973	241.478	-0.257	0.506
-271.958	62.601	-0.387	0.454
-270.943	-151.431	-0.730	0.062
-269.927	24.233	-0.642	-0.620
-268.912	800.000	0.183	-0.799
-267.896	100.937	-0.163	-0.222
-266.881	-140.048	-0.684	0.082
-265.866	71.284	-0.089	-0.108
-264.850	-161.244	0.640	0.038
-263.835	-128.183	-0.299	-0.049
-262.819	-200.000	0.070	-0.568
-261.804	-126.129	-0.463	0.080
-260.788	800.000	-0.100	-0.447
-259.773	17.540	-0.520	0.484
-258.758	422.172	-0.247	0.626
-257.742	333.082	-0.255	-0.583
-256.727	-200.000	0.002	-1.133
-255.711	384.672	-0.441	-1.076
-254.696	324.013	-0.193	0.435
-253.680	-152.311	-0.851	-0.070
-252.665	-10.274	0.185	-0.143
-251.650	-108.686	0.681	-0.168
-250.634	800.000	-0.241	-1.213
-249.619	-159.889	0.284	-0.018
-248.603	-87.204	1.144	-0.402
-247.588	-200.000	-0.028	-0.172
-246.573	-55.180	0.822	-0.430
-245.557	4.124	-0.745	-0.637
-244.542	-126.253	-0.301	0.052
-243.526	-200.000	-0.042	-0.561
-242.511	-200.000	-0.025	0.281
-241.495	-72.325	-0.643	0.276
-240.480	-200.000	0.051	-0.273
-239.465	12.471	0.266	0.240
-238.449	99.925	-0.329	-0.448
-237.434	-107.706	-0.735	0.185
-236.418	-200.000	-0.016	0.388
-235.403	-124.900	0.329	-0.058
-234.388	-35.701	-1.120	0.706
-233.372	-35.867	-0.884	0.557
-232.357	-98.023	-0.066	-0.020
-231.341	9.032	-0.786	-0.693
-230.326	-41.128	0.680	-0.408
-229.310	588.807	-0.137	-0.401
-228.295	-102.145	-0.210	0.058
-227.280	-200.000	0.014	0.234
-226.264	286.335	0.199	-0.423
-225.249	-19.199	-0.706	-0.511
-224.233	-110.304	-0.563	0.135
-223.218	-60.382	0.629	0.310
-222.202	142.810	-0.105	0.163
-221.187	-80.470	0.806	0.311
-220.172	-69.608	0.492	0.218
-219.156	337.709	-0.335	-0.770
-218.141	-133.516	0.561	-0.080
-217.125	-24.608	0.164	-0.113
-216.110	519.249	0.050	-0.139
-215.095	687.755	-0.286	0.885
-214.079	800.000	0.089	-0.465
-213.064	-28.350	0.831	-0.558
-212.048	-200.000	-0.069	-0.733
-211.033	-156.711	0.611	-0.043
-210.017	-57.943	-0.327	0.166
-209.002	50.274	-0.224	0.248
-207.987	-22.003	-0.151	0.107
-206.971	-200.000	0.040	0.688
-205.956	349.859	0.127	-0.297
-204.940	310.655	-0.285	-0.630
-203.925	7.663	0.274	-0.239
-202.910	258.670	0.297	-0.603
-201.894	800.000	-0.159	-0.613
-200.879	296.393	-0.235	0.508
-199.863	76.596	-0.296	0.368
-198.848	-200.000	0.011	-0.774
-197.832	-2.115	0.142	-0.116
-196.817	525.106	0.226	-0.628
-195.802	62.421	0.669	-0.782
-194.786	800.000	0.189	0.631
-193.771	-21.575	0.900	0.638
-192.755	214.519	0.039	-0.072
-191.740	21.810	-0.374	-0.356
-190.724	-34.742	0.374	0.237
-189.709	-41.829	-0.293	-0.174
-188.694	443.116	-0.181	0.468
-187.678	-200.000	0.001	-0.455
-186.663	-200.000	-0.116	-0.774
-185.647	-65.470	0.772	0.359
-184.632	191.962	0.293	0.518
-183.617	-86.233	0.538	-0.191
-182.601	-63.861	0.309	-0.146
-181.586	249.381	0.213	0.426
-180.570	5.557	0.215	0.185
-179.555	-132.923	-0.455	0.066
-178.539	17.702	-0.180	0.167
-177.524	-55.212	-0.876	0.456
-176.509	100.638	0.217	0.296
-175.493	-200.000	-0.049	-0.407
-174.478	-90.178	-0.439	0.147
-173.462	800.000	0.345	1.209
-172.447	-98.196	0.399	0.118
-171.432	-157.255	-0.715	-0.049
-170.416	-78.939	0.206	0.081
-169.401	1.974	-0.815	0.685
-168.385	-200.000	0.013	0.435
-167.370	-148.789	0.304	0.028
-166.354	244.675	0.343	0.679
-165.339	-100.267	-0.504	-0.144
-164.324	800.000	-0.059	0.203
-163.308	484.504	-0.209	0.562
-162.293	-135.543	-0.149	0.020
-161.277	-141.854	0.514	0.059
-160.262	800.000	-0.108	0.497
-159.246	-132.098	-0.724	-0.108
-158.231	-113.053	1.363	0.309
-157.216	328.961	-0.236	0.533
-156.200	-49.974	-0.491	0.270
-155.185	133.538	-0.196	-0.297
-154.169	237.433	0.444	0.865
-153.154	90.921	0.150	0.196
-152.139	224.503	-0.111	0.212
-151.123	165.074	0.510	0.845
-150.108	28.447	-0.315	0.311
-149.092	-33.934	-0.925	-0.591
-148.077	120.178	-0.140	-0.204
-147.061	-40.323	0.550	0.332
-146.046	-173.290	0.394	0.013
-145.031	-56.168	-0.594	-0.306
-144.015	0.310	-0.873	-0.725
-143.000	195.122	-0.123	-0.219
-141.984	41.941	-0.267	-0.283
-140.969	-137.284	-0.591	-0.077
-139.954	72.557	-0.404	0.492
-138.938	-141.558	-0.553	-0.063
-137.923	-200.000	0.000	-0.023
-136.907	15.662	0.414	0.379
-135.892	800.000	-0.069	-0.325
-134.876	-64.111	-0.586	-0.276
-133.861	-152.047	0.163	0.013
-132.846	-200.000	-0.051	-0.371
-131.830	119.690	-0.242	0.351
-130.815	731.701	0.129	0.409
-129.799	800.000	-0.141	0.564
-128.784	-48.631	-0.813	0.453
-127.768	158.135	-0.581	-0.944
-126.753	-68.119	-0.290	0.130
-125.738	-115.474	-0.207	-0.045
-124.722	-126.472	-0.484	0.082
-123.707	637.447	-0.006	-0.019
-122.691	420.245	-0.101	0.255
-121.676	131.423	0.222	0.334
-120.661	-85.558	-0.174	-0.062
-119.645	-23.233	-0.628	-0.438
-118.630	483.605	0.302	0.809
-117.614	-3.813	-0.368	-0.297
-116.599	-200.000	0.031	-0.289
-115.583	-124.554	-0.195	-0.035
-114.568	22.631	0.333	-0.317
-113.553	-152.884	1.218	0.098
-112.537	-102.981	128.033	34.874
-111.522	27.218	477.063	466.628
-110.506	266.928	72.207	148.269
-109.491	-1.454	33.005	27.062
-108.476	76.089	6.041	7.465
-107.460	800.000	-0.563	-2.245
-106.445	101.150	-1.378	-1.874
-105.429	172.545	0.740	1.248
-104.414	-54.429	-0.801	-0.420
-103.398	162.481	-0.816	-1.340
-102.383	70.439	-0.492	-0.593
-101.368	137.861	-0.884	-1.356
-100.352	-42.134	0.417	-0.247
-99.337	-69.944	0.357	-0.157
-98.321	74.016	0.540	-0.661
-97.306	-19.365	-1.923	-1.383
-96.290	-104.845	0.527	-0.139
-95.275	16.779	1.123	1.033
-94.260	-200.000	0.011	-0.569
-93.244	-42.055	-0.799	-0.473
-92.229	-0.687	0.805	0.663
-91.213	-53.506	0.312	-0.165
-90.198	5.460	-1.475	-1.266
-89.183	-5.459	-0.710	-0.566
-88.167	-200.000	-0.082	-0.608
-87.152	-17.350	-1.509	-1.102
-86.136	126.197	0.258	-0.381
-85.121	-138.761	0.600	-0.075
-84.105	63.386	-0.959	-1.121
-83.090	-200.000	-0.109	-2.059
-82.075	-186.464	1.306	0.021
-81.059	16.366	0.239	0.220
-80.044	156.029	-0.569	-0.918
-79.028	215.745	0.163	0.304
-78.013	37.395	0.276	0.285
-76.998	199.345	-0.336	-0.603
-75.982	800.000	-0.219	0.889
-74.967	162.343	0.150	-0.245
-73.951	325.285	-0.474	-1.064
-72.936	-200.000	-0.099	-1.219
-71.920	-36.064	0.649	0.406
-70.905	-117.232	-0.667	-0.139
-69.890	652.966	-0.250	-0.754
-68.874	-17.066	0.560	0.409
-67.859	14.304	0.606	-0.549
-66.843	-142.285	0.271	0.030
-65.828	-109.814	0.776	0.187
-64.812	-14.854	1.491	1.109
-63.797	2.863	1.041	0.877
-62.782	-41.557	1.945	1.156
-61.766	-3.321	2.339	1.890
-60.751	12.612	3.073	2.755
-59.735	37.509	2.996	3.091
-58.720	-26.960	5.231	3.536
-57.705	3.727	6.530	5.532
-56.689	35.586	8.336	8.515
-55.674	-43.090	37.783	22.135
-54.658	-31.627	95.296	61.917
-53.643	-11.869	1068.556	812.383
-52.627	15.279	10318.097	9398.781
-51.612	32.487	11525.111	11578.448
-50.597	28.272	9017.938	8853.715
-49.581	25.433	8833.081	8535.705
-48.566	24.962	8794.756	8475.812
-47.550	25.553	8762.616	8472.705
-46.535	25.667	8734.211	8450.395
-45.519	25.599	8713.310	8426.647
-44.504	25.572	8692.052	8404.510
-43.489	25.531	8677.271	8387.993
-42.473	25.554	8666.764	8378.620
-41.458	25.446	8663.750	8370.336
-40.442	25.492	8651.894	8360.745
-39.427	25.494	8646.286	8355.139
-38.412	25.467	8635.838	8343.461
-37.396	25.501	8631.774	8340.852
-36.381	25.537	8630.659	8341.182
-35.365	25.543	8615.431	8326.417
-34.350	25.536	8603.927	8314.710
-33.334	25.538	8601.154	8311.823
-32.319	25.507	8590.842	8300.095
-31.304	25.564	8590.747	8302.383
-30.288	25.490	8589.662	8297.591
-29.273	25.486	8581.613	8289.321
-28.257	25.471	8570.578	8277.692
-27.242	25.491	8564.533	8272.521
-26.227	25.484	8556.494	8264.125
-25.211	25.411	8548.696	8252.905
-24.196	25.448	8544.518	8250.307
-23.180	25.413	8539.430	8243.468
-22.165	25.453	8530.014	8235.953
-21.149	25.483	8530.010	8237.040
-20.134	25.491	8524.657	8231.969
-19.119	25.501	8514.719	8222.544
-18.103	25.504	8506.069	8214.030
-17.088	25.400	8499.195	8202.294
-16.072	25.391	8497.350	8199.803
-15.057	25.422	8486.932	8190.917
-14.041	25.398	8480.380	8183.202
-13.026	25.385	8478.858	8180.863
-12.011	25.511	8475.434	8183.065
-10.995	25.503	8471.656	8178.760
-9.980	25.485	8469.068	8175.144
-8.964	25.391	8459.081	8160.879
-7.949	25.375	8453.438	8154.438
-6.934	25.390	8456.105	8157.393
-5.918	25.416	8448.232	8150.706
-4.903	25.335	8443.254	8141.919
-3.887	25.380	8433.746	8134.529
-2.872	25.354	8433.234	8132.567
-1.856	25.390	8426.270	8127.175
-0.841	25.402	8417.954	8119.449
0.174	23.455	8448.442	8177.379
1.190	23.601	8216.836	7959.491
2.205	22.219	7721.022	7419.936
3.221	22.666	7546.212	7270.282
4.236	25.761	6817.176	6684.038
5.251	28.031	4656.315	4623.301
6.267	23.671	3794.221	3676.070
7.282	24.373	3709.685	3608.390
8.298	24.400	3702.762	3602.054
9.313	24.683	3699.086	3604.097
10.329	24.706	3695.756	3601.165
11.344	24.629	3691.929	3595.724
12.359	24.730	3692.093	3597.767
13.375	24.752	3695.994	3601.867
14.390	24.715	3690.259	3595.378
15.406	24.675	3688.794	3592.988
16.421	24.727	3686.575	3591.735
17.437	24.713	3686.180	3590.895
18.452	24.754	3687.760	3593.133
19.467	24.751	3687.052	3592.231
20.483	24.758	3685.663	3590.866
21.498	24.725	3684.143	3588.553
22.514	24.805	3684.164	3590.042
23.529	24.911	3682.590	3590.516
24.544	24.694	3682.770	3586.131
25.560	24.189	3678.534	3571.607
26.575	23.216	3670.328	3543.811
27.591	23.631	3672.803	3554.457
28.606	22.801	3666.657	3531.563
29.622	21.578	3657.325	3497.712
30.637	20.830	3650.238	3475.704
31.652	20.470	3650.475	3468.519
32.668	22.001	3663.213	3511.467
33.683	24.176	3668.984	3560.860
34.699	24.069	3670.325	3559.847
35.714	27.012	3687.274	3635.833
36.729	28.478	3685.712	3663.795
37.745	24.862	3662.580	3567.878
38.760	23.403	3651.529	3527.606
39.776	23.238	3649.547	3522.238
40.791	23.420	3649.787	3525.981
41.807	23.356	3648.021	3522.835
42.822	23.363	3647.491	3522.313
43.837	22.984	3648.999	3515.989
44.853	23.473	3650.238	3526.877
45.868	23.601	3646.588	3525.778
46.884	22.658	3640.686	3500.983
47.899	21.641	3638.311	3478.139
48.915	21.636	3634.662	3474.399
49.930	21.232	3627.848	3459.650
50.945	20.926	3626.747	3452.313
51.961	21.279	3627.700	3460.153
52.976	23.373	3637.586	3511.443
53.992	23.403	3629.721	3504.300
55.007	22.677	3629.754	3489.670
56.022	22.081	3623.492	3471.579
57.038	21.801	3620.643	3463.125
58.053	22.175	3619.284	3469.131
59.069	23.306	3623.889	3495.988
60.084	23.222	3617.156	3487.681
61.100	21.529	3605.684	3442.820
62.115	22.194	3533.716	3386.903
63.130	24.538	3184.594	3093.283
64.146	23.762	3069.512	2968.257
65.161	23.945	3056.908	2959.032
66.177	23.871	3054.286	2955.128
67.192	23.956	3051.672	2953.894
68.207	24.008	3046.833	2949.952
69.223	24.026	3044.085	2947.466
70.238	24.060	3042.285	2946.172
71.254	24.022	3038.701	2941.934
72.269	24.200	3036.412	2942.580
73.285	24.045	3034.905	2938.393
74.300	24.246	3035.231	2941.944
75.315	24.600	3035.483	2947.969
76.331	24.733	3035.635	2950.219
77.346	24.431	3031.205	2940.748
78.362	23.813	3025.633	2924.944
79.377	23.701	3023.561	2920.942
80.393	23.711	3020.471	2918.007
81.408	23.874	3016.182	2916.447
82.423	23.851	3012.135	2912.015
83.439	23.871	3014.553	2914.565
84.454	23.961	3014.307	2915.692
85.470	23.884	3009.077	2909.246
86.485	23.927	3006.921	2907.750
87.500	23.745	3009.106	2906.717
88.516	23.936	3008.181	2908.861
89.531	24.669	3005.221	2917.987
90.547	25.132	3004.578	2924.871
91.562	24.467	2997.090	2906.518
92.578	23.818	2989.971	2888.817
93.593	23.747	2985.349	2883.075
94.608	23.581	2985.527	2880.387
95.624	23.611	2986.205	2881.418
96.639	23.677	2985.663	2881.847
97.655	23.610	2983.166	2878.220
98.670	23.643	2979.126	2874.739
99.685	23.712	2976.629	2873.334
100.701	23.512	2975.829	2869.174
101.716	23.451	2969.236	2861.706
102.732	23.388	2967.626	2858.995
103.747	23.938	2971.331	2871.421
104.763	26.149	2978.929	2914.794
105.778	23.858	2959.308	2858.273
106.793	22.297	2944.222	2818.304
107.809	21.138	2989.139	2842.090
108.824	33.018	1773.804	1801.849
109.840	17.041	265.138	246.076
110.855	-7.176	69.239	54.896
111.871	-8.522	48.835	38.347
112.886	-79.163	46.278	18.214
113.901	-91.421	44.548	14.725
114.917	10.004	43.589	38.745
115.932	30.365	42.409	42.454
116.948	26.836	42.098	41.330
117.963	30.964	40.717	40.889
118.978	21.545	41.484	39.518
