DTS Sentinel unit serial number:	SN208115Multiplexer serial number:	no multiplexerHardware model number:	SEN2MRSoftware version number:	3.7data status	okinstallation	Posledni klalibrace stavebkadifferential loss correction	single-endedforward channel	Posledni klalibrace stavebkareverse channel	N/Adate	2016/05/20time	08:27:12forward acquisition time	30.24reverse acquisition time	NaNgamma	501.9000k internal	0.1931k external	0.1931temperature offset calibration	0.9869default loss term (dB/km)	0.2890temperature slope calibration	0.6300multiplexer offset coefficient	0.0000multiplexer slope coefficient	0.0000fibre end	NaNT internal ref (°C)	25.45T ext. ref 1 (°C)	0.73T ext. ref 2 (°C)	0.38length (m)	temperature (°C)	Stokes	anti-Stokes-373.500	-200.000	-0.005	-0.159
-372.485	147.939	-0.401	-0.639
-371.469	-123.988	-0.534	-0.097
-370.454	-200.000	-0.045	-0.597
-369.438	359.823	-0.324	0.768
-368.423	-132.831	-0.220	-0.032
-367.407	73.164	0.272	-0.334
-366.392	193.154	0.511	0.913
-365.377	-5.607	0.468	0.376
-364.361	-70.533	1.175	-0.517
-363.346	271.230	0.179	0.372
-362.330	335.826	0.146	0.335
-361.315	172.136	0.135	0.230
-360.300	-200.000	0.120	0.701
-359.284	7.258	-1.095	0.957
-358.269	-120.583	-0.777	0.152
-357.253	-77.930	-0.677	0.271
-356.238	168.451	0.313	-0.526
-355.222	138.713	-0.138	-0.213
-354.207	-76.247	-0.572	0.234
-353.192	800.000	-0.229	-0.757
-352.176	-112.364	-0.427	-0.099
-351.161	27.918	-0.318	-0.315
-350.145	-131.128	0.820	-0.125
-349.130	-26.958	-0.119	-0.081
-348.115	-139.855	0.563	0.068
-347.099	642.304	0.206	-0.622
-346.084	28.305	0.219	-0.216
-345.068	55.356	0.411	0.466
-344.053	-200.000	-0.036	0.958
-343.037	189.696	0.252	-0.447
-342.022	-200.000	-0.033	0.333
-341.007	-13.128	0.258	-0.196
-339.991	800.000	-0.060	-0.204
-338.976	-67.287	1.052	-0.481
-337.960	-130.490	0.193	-0.030
-336.945	-176.624	0.331	-0.010
-335.929	-200.000	-0.102	-0.757
-334.914	-70.647	-0.707	0.310
-333.899	-175.401	-0.830	-0.026
-332.883	-133.468	0.596	-0.086
-331.868	-200.000	0.102	0.620
-330.852	169.695	0.179	0.302
-329.837	-70.168	-0.296	0.131
-328.822	-65.092	0.228	-0.107
-327.806	29.993	0.148	-0.148
-326.791	-87.911	-0.660	0.230
-325.775	-200.000	0.084	-0.785
-324.760	800.000	0.244	-1.215
-323.744	276.678	-0.144	0.302
-322.729	-50.752	-0.730	-0.400
-321.714	-197.783	-0.316	-0.002
-320.698	800.000	-0.035	-0.157
-319.683	-96.389	0.190	-0.058
-318.667	-130.645	-0.662	-0.102
-317.652	237.907	0.108	-0.212
-316.637	800.000	0.145	-0.490
-315.621	-142.157	-0.755	0.086
-314.606	-124.062	-0.809	-0.146
-313.590	18.223	-0.362	-0.338
-312.575	800.000	0.217	0.854
-311.559	131.975	-0.301	0.456
-310.544	-145.744	0.557	-0.057
-309.529	-57.413	-0.461	-0.235
-308.513	-54.265	-0.732	-0.386
-307.498	40.113	0.567	-0.597
-306.482	-200.000	0.130	0.750
-305.467	-200.000	-0.029	-0.470
-304.451	127.961	-0.393	-0.587
-303.436	-2.634	0.519	-0.425
-302.421	15.005	0.423	-0.388
-301.405	-145.636	0.288	-0.029
-300.390	-114.521	0.666	-0.147
-299.374	-67.383	1.156	-0.527
-298.359	-58.914	0.464	0.233
-297.344	-96.179	0.171	0.053
-296.328	-12.810	-0.241	0.183
-295.313	-94.612	-0.184	-0.058
-294.297	-23.129	-0.350	-0.245
-293.282	-89.648	-0.244	0.083
-292.266	800.000	-0.061	-0.275
-291.251	522.471	0.056	-0.154
-290.236	-176.169	1.003	0.030
-289.220	-11.728	0.291	0.223
-288.205	-95.296	-0.679	-0.211
-287.189	-84.111	0.089	0.033
-286.174	-75.489	1.069	-0.441
-285.159	-200.000	-0.007	-0.273
-284.143	179.023	-0.449	-0.773
-283.128	-200.000	0.180	1.101
-282.112	4.644	-0.582	0.499
-281.097	14.204	-0.147	0.134
-280.081	-83.012	0.159	-0.059
-279.066	590.620	-0.295	-0.862
-278.051	64.179	0.268	0.316
-277.035	226.665	0.618	-1.182
-276.020	-153.828	0.845	-0.066
-275.004	-54.346	-0.082	0.043
-273.989	-200.000	-0.022	0.261
-272.973	74.509	0.049	0.060
-271.958	-200.000	0.095	0.819
-270.943	-91.560	-0.202	0.067
-269.927	-36.367	0.191	-0.120
-268.912	-190.451	1.275	-0.015
-267.896	-185.076	0.414	0.007
-266.881	57.906	-0.303	-0.348
-265.866	-43.148	0.630	0.371
-264.850	-101.888	0.315	-0.088
-263.835	-77.946	-0.525	-0.209
-262.819	33.459	-0.309	0.314
-261.804	-154.806	-0.223	-0.017
-260.788	135.075	0.244	-0.373
-259.773	800.000	0.019	0.075
-258.758	13.241	0.417	0.377
-257.742	-79.009	-0.388	-0.153
-256.727	8.924	-0.510	0.449
-255.711	-90.858	0.582	0.194
-254.696	105.207	-0.229	-0.317
-253.680	101.790	-0.447	-0.611
-252.665	-129.388	1.089	-0.173
-251.650	800.000	0.157	0.705
-250.634	24.203	0.676	0.652
-249.619	-122.901	0.475	0.088
-248.603	181.448	-0.067	-0.116
-247.588	469.222	0.274	-0.727
-246.573	-7.015	-0.261	0.207
-245.557	-90.411	-0.636	0.213
-244.542	-99.041	-0.215	0.063
-243.526	-36.900	-0.755	0.470
-242.511	231.710	-0.389	0.750
-241.495	2.558	-0.524	0.442
-240.480	-41.644	-0.229	0.137
-239.465	395.328	-0.237	-0.584
-238.449	486.625	0.217	-0.584
-237.434	31.920	0.500	0.503
-236.418	-50.107	0.302	-0.166
-235.403	4.917	-0.250	-0.214
-234.388	625.252	-0.112	-0.334
-233.372	-55.274	0.467	0.243
-232.357	210.580	-0.037	-0.068
-231.341	191.091	-0.278	0.492
-230.326	541.470	-0.104	0.294
-229.310	-155.075	-1.174	0.087
-228.295	-24.301	-0.581	-0.403
-227.280	8.024	0.519	-0.454
-226.264	118.373	0.214	-0.310
-225.249	-200.000	-0.780	0.001
-224.233	-52.438	-0.391	0.210
-223.218	18.876	-0.361	0.338
-222.202	-92.285	-0.340	0.111
-221.187	-72.529	-0.382	-0.163
-220.172	-200.000	-0.038	0.361
-219.156	62.282	0.463	0.541
-218.141	-58.843	0.534	-0.268
-217.125	502.288	0.163	0.445
-216.110	152.835	-0.280	0.449
-215.095	145.003	-0.324	-0.508
-214.079	82.907	0.318	-0.405
-213.064	-36.734	0.116	-0.072
-212.048	-135.523	0.548	0.074
-211.033	-200.000	-0.024	1.167
-210.017	33.985	-0.328	0.333
-209.002	377.357	-0.334	-0.803
-207.987	-189.173	-0.339	0.004
-206.971	-153.333	0.579	0.046
-205.956	800.000	0.044	0.144
-204.940	-81.165	1.165	0.444
-203.925	33.505	-0.493	0.500
-202.910	-109.970	-0.464	-0.111
-201.894	-82.314	-0.293	0.110
-200.879	-118.528	-1.467	0.297
-199.863	-83.495	-0.679	0.251
-198.848	-51.333	-0.611	-0.331
-197.832	800.000	0.098	-0.501
-196.817	-137.851	0.746	-0.095
-195.802	800.000	-0.064	-0.228
-194.786	222.928	-0.214	0.404
-193.771	-200.000	0.048	0.418
-192.755	-165.522	0.840	-0.041
-191.740	-175.190	-0.246	0.008
-190.724	800.000	0.036	-0.139
-189.709	-40.956	0.516	0.309
-188.694	800.000	-0.093	-0.462
-187.678	186.101	0.145	-0.254
-186.663	-132.428	-1.350	0.199
-185.647	0.020	0.551	-0.457
-184.632	-33.308	-0.515	0.331
-183.617	-200.000	-0.360	0.001
-182.601	-0.564	0.520	0.430
-181.586	-129.719	-0.696	0.109
-180.570	800.000	0.119	-0.589
-179.555	-78.819	0.240	-0.095
-178.539	27.647	0.213	0.209
-177.524	-71.264	-0.759	-0.329
-176.509	-122.718	-0.665	-0.123
-175.493	-114.524	-0.533	0.117
-174.478	-36.306	0.121	-0.076
-173.462	-200.000	0.043	-0.528
-172.447	123.698	0.390	-0.573
-171.432	-44.168	0.742	0.431
-170.416	-98.934	-0.215	0.063
-169.401	-200.000	-0.023	-0.330
-168.385	34.307	0.357	0.362
-167.370	-60.193	0.377	-0.186
-166.354	-200.000	0.047	-0.365
-165.339	-200.000	0.101	0.598
-164.324	-5.422	-0.503	-0.401
-163.308	800.000	0.089	-0.329
-162.293	96.954	0.283	0.379
-161.277	357.431	0.512	1.201
-160.262	-0.397	0.665	0.549
-159.246	-29.907	0.182	0.120
-158.231	-120.171	0.614	0.120
-157.216	-98.871	-0.462	0.135
-156.200	10.765	-0.411	0.365
-155.185	-183.177	-0.438	0.009
-154.169	253.320	0.135	0.271
-153.154	-200.000	0.018	0.728
-152.139	-133.176	-0.657	0.095
-151.123	306.037	0.057	0.124
-150.108	-121.319	0.439	-0.084
-149.092	-143.340	-0.508	-0.055
-148.077	239.122	-0.087	-0.170
-147.061	0.077	-0.929	0.769
-146.046	-50.779	0.212	-0.115
-145.031	-115.820	0.243	0.052
-144.015	20.449	0.618	0.582
-143.000	-153.146	-0.856	-0.068
-141.984	-135.704	-0.145	0.020
-140.969	587.824	-0.360	-1.046
-139.954	-49.929	-0.522	-0.286
-138.938	-20.425	0.396	0.282
-137.923	47.738	-0.549	0.597
-136.907	-33.710	-0.078	0.050
-135.892	398.319	-0.354	-0.871
-134.876	-124.212	-0.109	0.019
-133.861	-200.000	-0.020	-0.141
-132.846	20.819	-0.166	-0.156
-131.830	337.834	-0.137	-0.314
-130.815	-200.000	-0.654	0.000
-129.799	93.061	0.670	0.884
-128.784	19.055	-0.685	-0.639
-127.768	-200.000	0.029	0.150
-126.753	18.300	-0.301	-0.280
-125.738	-200.000	0.028	-0.281
-124.722	-34.654	-0.183	-0.116
-123.707	282.540	0.296	0.623
-122.691	-24.386	0.374	-0.258
-121.676	51.384	0.514	0.568
-120.661	-158.990	-0.387	-0.025
-119.645	800.000	0.147	0.730
-118.630	-10.114	0.599	0.462
-117.614	-149.772	0.324	0.029
-116.599	86.141	0.393	-0.505
-115.583	-75.179	0.341	-0.140
-114.568	341.452	-0.314	-0.721
-113.553	-93.171	0.889	0.284
-112.537	-93.908	122.024	38.521
-111.522	32.640	521.124	524.136
-110.506	259.948	82.516	167.095
-109.491	4.528	32.348	27.552
-108.476	87.512	5.388	6.956
-107.460	394.684	-1.000	-2.449
-106.445	734.481	-0.490	-1.547
-105.429	-139.760	0.519	0.063
-104.414	29.026	-0.552	-0.545
-103.398	33.140	-1.147	-1.157
-102.383	382.903	0.420	-1.013
-101.368	86.121	-0.908	-1.166
-100.352	-200.000	0.014	-0.635
-99.337	-118.993	1.256	-0.251
-98.321	-117.571	-0.550	-0.113
-97.306	-79.426	-1.891	-0.736
-96.290	347.894	-0.288	-0.665
-95.275	214.588	0.806	1.495
-94.260	-73.141	-1.297	-0.547
-93.244	124.655	-0.834	-1.225
-92.229	-51.804	-0.265	0.143
-91.213	-12.511	-0.622	-0.470
-90.198	800.000	-0.409	-1.421
-89.183	-200.000	0.108	-0.695
-88.167	800.000	-0.116	-0.491
-87.152	-64.290	-0.961	-0.451
-86.136	36.327	0.435	-0.446
-85.121	-60.858	0.590	-0.288
-84.105	85.949	-0.398	-0.510
-83.090	665.200	-0.431	-1.310
-82.075	-54.486	1.545	-0.807
-81.059	14.608	0.365	-0.331
-80.044	41.387	-1.048	-1.102
-79.028	800.000	-0.091	-0.412
-78.013	-104.154	0.712	0.189
-76.998	80.433	-0.580	-0.728
-75.982	-200.000	-0.186	-0.974
-74.967	52.446	0.268	-0.298
-73.951	163.962	-0.555	-0.913
-72.936	59.366	-0.826	-0.947
-71.920	-3.672	0.903	0.727
-70.905	-27.337	-0.303	-0.204
-69.890	729.931	-0.431	-1.356
-68.874	226.379	-0.342	-0.649
-67.859	-185.314	1.003	0.017
-66.843	5.976	0.667	-0.573
-65.828	-100.863	1.992	-0.561
-64.812	-20.549	1.202	0.854
-63.797	-35.789	0.862	0.539
-62.782	-113.907	1.179	0.261
-61.766	-4.645	2.699	2.157
-60.751	-3.730	2.452	1.973
-59.735	-18.232	3.812	2.758
-58.720	27.617	4.965	4.849
-57.705	-8.214	6.580	5.128
-56.689	31.158	8.532	8.497
-55.674	-61.357	43.514	21.083
-54.658	-47.866	111.301	62.147
-53.643	-12.354	1050.526	794.442
-52.627	15.284	10291.616	9358.568
-51.612	32.373	11523.439	11549.515
-50.597	28.241	8974.548	8794.214
-49.581	25.485	8788.732	8480.512
-48.566	24.836	8749.004	8411.029
-47.550	25.496	8716.851	8411.080
-46.535	25.584	8687.340	8386.445
-45.519	25.611	8666.176	8366.998
-44.504	25.638	8643.108	8345.692
-43.489	25.529	8629.315	8326.989
-42.473	25.533	8620.515	8318.407
-41.458	25.502	8614.324	8310.666
-40.442	25.564	8601.905	8301.281
-39.427	25.516	8597.448	8294.452
-38.412	25.449	8591.387	8285.214
-37.396	25.429	8587.447	8280.193
-36.381	25.477	8583.302	8278.131
-35.365	25.502	8571.087	8267.198
-34.350	25.511	8559.573	8256.223
-33.334	25.435	8558.692	8251.576
-32.319	25.453	8548.703	8242.506
-31.304	25.476	8546.973	8241.595
-30.288	25.529	8542.839	8239.761
-29.273	25.541	8534.081	8231.585
-28.257	25.456	8526.361	8219.911
-27.242	25.467	8519.026	8213.059
-26.227	25.443	8509.019	8202.040
-25.211	25.431	8501.481	8193.941
-24.196	25.486	8497.068	8191.905
-23.180	25.446	8492.709	8185.589
-22.165	25.460	8485.593	8179.069
-21.149	25.523	8488.103	8184.139
-20.134	25.546	8480.064	8177.121
-19.119	25.461	8473.026	8166.150
-18.103	25.477	8462.289	8156.249
-17.088	25.467	8454.813	8148.322
-16.072	25.432	8454.185	8145.819
-15.057	25.444	8443.805	8136.082
-14.041	25.430	8437.528	8129.094
-13.026	25.414	8437.779	8128.323
-12.011	25.486	8435.345	8128.996
-10.995	25.468	8430.934	8123.628
-9.980	25.460	8428.269	8120.419
-8.964	25.341	8418.993	8105.748
-7.949	25.364	8411.723	8099.516
-6.934	25.405	8412.193	8101.551
-5.918	25.409	8407.875	8097.326
-4.903	25.355	8398.993	8085.998
-3.887	25.280	8393.280	8076.808
-2.872	25.346	8388.196	8074.634
-1.856	25.372	8384.701	8072.161
-0.841	25.363	8378.583	8065.611
0.174	23.432	8401.833	8117.039
1.190	23.606	8155.004	7886.052
2.205	22.366	7638.243	7333.773
3.221	22.868	7455.855	7179.006
4.236	25.460	6827.524	6671.177
5.251	29.844	4438.062	4443.008
6.267	23.999	3286.366	3184.426
7.282	24.727	3174.980	3089.075
8.298	24.926	3164.179	3081.909
9.313	25.117	3161.079	3082.070
10.329	25.084	3160.875	3081.173
11.344	25.172	3157.999	3079.762
12.359	25.269	3153.238	3076.668
13.375	25.272	3157.929	3081.173
14.390	25.212	3154.711	3076.854
15.406	25.173	3153.261	3074.633
16.421	25.170	3151.694	3072.931
17.437	25.235	3152.438	3074.643
18.452	25.238	3150.327	3072.520
19.467	25.180	3147.954	3069.059
20.483	25.134	3150.071	3070.198
21.498	25.205	3151.473	3072.666
22.514	25.348	3146.747	3070.402
23.529	25.233	3147.872	3069.386
24.544	25.326	3144.852	3067.908
25.560	24.860	3142.376	3057.308
26.575	23.966	3135.842	3035.415
27.591	24.219	3137.360	3041.122
28.606	23.713	3133.987	3028.989
29.622	22.316	3123.128	2994.326
30.637	21.487	3118.279	2975.302
31.652	21.188	3117.772	2969.556
32.668	22.666	3130.359	3006.914
33.683	25.029	3136.039	3053.029
34.699	24.526	3135.868	3044.055
35.714	27.755	3151.955	3115.408
36.729	28.871	3149.438	3132.025
37.745	24.802	3126.183	3039.014
38.760	23.890	3117.588	3014.890
39.776	24.175	3116.394	3018.491
40.791	24.347	3117.218	3022.110
41.807	24.003	3114.817	3013.764
42.822	23.323	3110.782	2998.101
43.837	22.622	3109.170	2984.409
44.853	22.375	3108.433	2979.347
45.868	22.421	3103.409	2975.202
46.884	22.155	3101.287	2968.496
47.899	21.730	3100.761	2960.609
48.915	21.554	3097.154	2954.028
49.930	21.502	3093.081	2949.136
50.945	21.496	3092.718	2948.564
51.961	21.618	3093.693	2951.442
52.976	23.196	3101.671	2985.873
53.992	23.060	3098.951	2980.812
55.007	22.634	3095.454	2970.071
56.022	21.713	3093.690	2952.551
57.038	21.955	3088.987	2952.063
58.053	21.950	3089.182	2952.038
59.069	22.666	3084.533	2959.616
60.084	22.683	3074.109	2949.788
61.100	21.381	3060.926	2915.067
62.115	22.674	2971.593	2851.019
63.130	25.533	2545.468	2482.062
64.146	24.632	2407.145	2335.190
65.161	24.790	2395.503	2325.873
66.177	24.650	2393.515	2321.999
67.192	24.777	2392.148	2322.248
68.207	24.840	2390.517	2321.386
69.223	24.727	2389.808	2319.118
70.238	24.962	2387.071	2319.440
71.254	25.027	2383.302	2316.533
72.269	25.084	2381.819	2315.745
73.285	25.033	2380.415	2313.614
74.300	24.984	2380.117	2312.581
75.315	25.447	2380.261	2318.674
76.331	25.809	2380.561	2323.592
77.346	25.312	2377.082	2313.609
78.362	24.646	2372.440	2300.326
79.377	24.694	2370.355	2298.836
80.393	24.646	2368.221	2296.044
81.408	24.781	2365.135	2294.703
82.423	24.808	2362.176	2292.089
83.439	24.844	2361.371	2291.681
84.454	24.787	2362.124	2291.569
85.470	24.683	2361.686	2289.696
86.485	24.721	2358.929	2287.424
87.500	24.688	2359.777	2287.723
88.516	24.910	2358.391	2289.153
89.531	25.269	2356.837	2292.187
90.547	25.489	2358.742	2296.777
91.562	24.884	2354.616	2284.855
92.578	24.526	2352.482	2278.077
93.593	24.440	2351.591	2276.006
94.608	24.490	2348.469	2273.526
95.624	24.447	2350.481	2274.832
96.639	24.587	2349.662	2275.740
97.655	24.689	2346.680	2274.066
98.670	24.581	2343.509	2269.513
99.685	24.614	2343.309	2269.646
100.701	24.445	2343.392	2267.463
101.716	24.240	2339.262	2260.739
102.732	24.140	2338.771	2258.884
103.747	24.534	2340.203	2265.227
104.763	26.293	2344.155	2291.536
105.778	24.405	2319.302	2243.156
106.793	23.408	2299.097	2210.950
107.809	23.086	2331.296	2237.698
108.824	34.707	1383.109	1415.197
109.840	19.187	210.495	197.513
110.855	-4.460	59.346	47.875
111.871	-37.526	43.575	27.045
112.886	-138.988	42.354	5.249
113.901	-51.824	41.157	22.259
114.917	28.342	39.348	38.889
115.932	28.505	38.262	37.848
116.948	22.854	38.753	37.133
117.963	25.527	36.572	35.578
118.978	28.609	36.603	36.223
