DTS Sentinel unit serial number:	SN208115Multiplexer serial number:	no multiplexerHardware model number:	SEN2MRSoftware version number:	3.7data status	okinstallation	Posledni klalibrace stavebkadifferential loss correction	single-endedforward channel	Posledni klalibrace stavebkareverse channel	N/Adate	2016/05/20time	08:26:13forward acquisition time	30.22reverse acquisition time	NaNgamma	501.9000k internal	0.1935k external	0.1935temperature offset calibration	0.9869default loss term (dB/km)	0.2890temperature slope calibration	0.6300multiplexer offset coefficient	0.0000multiplexer slope coefficient	0.0000fibre end	NaNT internal ref (°C)	25.44T ext. ref 1 (°C)	0.73T ext. ref 2 (°C)	0.38length (m)	temperature (°C)	Stokes	anti-Stokes-373.500	800.000	0.123	0.570
-372.485	226.061	-0.384	-0.734
-371.469	12.753	0.204	-0.185
-370.454	800.000	-0.077	-0.287
-369.438	-135.888	0.372	-0.050
-368.423	-149.934	-0.262	-0.023
-367.407	-37.724	-0.149	0.092
-366.392	-108.209	0.243	0.061
-365.377	131.516	-0.346	-0.524
-364.361	-200.000	0.104	-1.084
-363.346	-69.713	-0.337	-0.149
-362.330	800.000	-0.195	0.953
-361.315	14.897	-0.268	-0.246
-360.300	102.340	0.416	-0.571
-359.284	191.053	0.396	0.702
-358.269	241.678	0.263	0.519
-357.253	19.355	-0.273	-0.256
-356.238	-125.918	-0.848	0.147
-355.222	-64.637	-0.478	-0.225
-354.207	-45.108	-0.503	-0.291
-353.192	23.277	0.101	0.098
-352.176	-45.319	-0.401	-0.231
-351.161	135.728	-0.370	-0.567
-350.145	-161.110	-0.264	-0.016
-349.130	-108.399	0.241	0.060
-348.115	800.000	0.067	-0.269
-347.099	81.845	-0.097	-0.124
-346.084	-34.667	0.340	-0.217
-345.068	15.998	0.524	-0.482
-344.053	-200.000	-0.051	0.725
-343.037	32.659	0.339	0.343
-342.022	-131.297	-0.461	0.070
-341.007	-7.089	0.168	-0.133
-339.991	-75.313	0.932	-0.385
-338.976	-200.000	-0.669	0.002
-337.960	800.000	-0.094	-0.415
-336.945	-150.748	-0.245	0.021
-335.929	-200.000	0.012	-0.540
-334.914	-16.086	-0.259	-0.192
-333.899	633.660	-0.079	0.237
-332.883	800.000	0.107	0.438
-331.868	-197.526	-0.713	-0.005
-330.852	679.671	0.136	0.418
-329.837	32.332	0.352	0.355
-328.822	-94.437	0.166	-0.052
-327.806	800.000	-0.071	-0.283
-326.791	-200.000	-0.036	-0.453
-325.775	-137.526	-1.279	0.165
-324.760	467.577	-0.174	-0.460
-323.744	-86.780	-0.370	-0.131
-322.729	-116.094	0.691	0.148
-321.714	-57.148	-0.457	-0.233
-320.698	-75.988	0.353	-0.145
-319.683	800.000	-0.051	0.230
-318.667	194.111	0.157	0.280
-317.652	226.740	0.150	-0.287
-316.637	-15.165	0.312	0.232
-315.621	-123.361	0.339	-0.062
-314.606	190.684	-0.473	-0.836
-313.590	-77.119	-0.451	0.182
-312.575	-80.888	-1.035	-0.397
-311.559	-103.591	-1.112	0.300
-310.544	642.558	-0.216	0.650
-309.529	524.854	0.110	0.306
-308.513	-200.000	0.079	-0.513
-307.498	-200.000	-0.140	-0.797
-306.482	-76.117	-0.912	0.373
-305.467	-104.730	0.335	-0.089
-304.451	-100.388	0.453	-0.129
-303.436	85.123	-0.301	0.387
-302.421	26.816	0.125	0.123
-301.405	-15.999	0.537	0.398
-300.390	-130.229	-1.131	-0.176
-299.374	-1.226	0.472	0.388
-298.359	464.847	0.164	0.432
-297.344	-114.298	-1.250	-0.277
-296.328	-86.412	0.830	-0.295
-295.313	232.496	0.094	0.182
-294.297	-28.211	-0.340	0.229
-293.282	49.701	0.403	0.444
-292.266	90.880	-0.403	-0.529
-291.251	-136.476	-0.279	-0.037
-290.236	248.447	-0.299	-0.595
-289.220	217.536	0.501	-0.939
-288.205	800.000	-0.178	-0.681
-287.189	-164.475	0.470	0.024
-286.174	455.091	0.222	0.581
-285.159	-137.664	0.887	-0.114
-284.143	204.130	0.194	-0.353
-283.128	-140.958	-0.632	-0.074
-282.112	-144.878	-0.702	-0.073
-281.097	37.207	-0.690	-0.714
-280.081	173.512	-0.067	0.114
-279.066	-176.845	-0.230	0.007
-278.051	-71.472	1.061	0.459
-277.035	-30.986	0.606	-0.398
-276.020	2.574	0.049	-0.042
-275.004	5.728	-0.622	0.536
-273.989	83.526	0.153	0.195
-272.973	10.886	0.190	0.169
-271.958	219.566	0.289	-0.544
-270.943	-44.804	-0.337	-0.195
-269.927	-7.648	0.487	-0.383
-268.912	256.275	0.108	0.219
-267.896	-128.633	-0.883	0.143
-266.881	-24.061	0.333	-0.231
-265.866	-169.130	0.784	-0.033
-264.850	-146.797	0.325	0.032
-263.835	-200.000	-0.081	0.703
-262.819	800.000	-0.051	0.181
-261.804	-108.875	0.246	0.060
-260.788	360.124	-0.154	-0.362
-259.773	-200.000	-0.011	-0.126
-258.758	76.554	-0.129	-0.159
-257.742	-5.247	-0.523	-0.419
-256.727	-59.731	0.283	-0.140
-255.711	-200.000	0.077	-0.902
-254.696	-107.545	-1.010	0.254
-253.680	-90.700	0.947	0.315
-252.665	-102.025	-0.487	0.135
-251.650	-132.446	0.674	-0.099
-250.634	3.198	-0.378	0.320
-249.619	89.903	-0.383	0.500
-248.603	141.407	0.215	0.333
-247.588	-68.809	0.090	-0.040
-246.573	-187.711	0.413	0.006
-245.557	131.343	0.273	-0.410
-244.542	800.000	-0.096	0.493
-243.526	-121.260	-0.267	0.051
-242.511	-28.881	-0.678	-0.452
-241.495	-84.896	-0.737	0.267
-240.480	-169.114	0.244	0.010
-239.465	-32.807	-0.665	-0.429
-238.449	-143.868	0.371	-0.040
-237.434	-158.018	-0.647	0.043
-236.418	-164.006	-0.171	0.009
-235.403	61.624	0.237	0.275
-234.388	131.056	-0.021	-0.031
-233.372	-147.225	0.189	-0.018
-232.357	-104.310	0.297	0.079
-231.341	-200.000	0.018	-0.176
-230.326	-146.117	0.662	-0.066
-229.310	74.287	-0.325	-0.398
-228.295	800.000	0.047	0.176
-227.280	-138.309	-0.181	-0.023
-226.264	16.718	-0.181	0.167
-225.249	-200.000	-0.060	-0.600
-224.233	-102.736	0.476	-0.130
-223.218	800.000	-0.064	0.213
-222.202	800.000	-0.125	-0.443
-221.187	-35.311	0.504	0.318
-220.172	174.505	-0.116	-0.196
-219.156	-179.040	0.818	0.021
-218.141	-0.802	0.535	-0.441
-217.125	-141.360	0.455	0.052
-216.110	-195.635	0.886	0.007
-215.095	749.745	0.059	0.189
-214.079	-142.896	-1.025	0.113
-213.064	63.009	-0.272	-0.318
-212.048	560.447	0.368	-1.047
-211.033	-45.344	-0.369	-0.212
-210.017	-88.767	1.070	-0.366
-209.002	800.000	0.250	-0.852
-207.987	-149.447	0.538	0.048
-206.971	-200.000	0.035	0.227
-205.956	-44.569	0.367	-0.212
-204.940	188.265	-0.156	0.273
-203.925	-96.450	0.531	0.161
-202.910	-79.369	0.596	0.232
-201.894	-100.077	0.261	0.075
-200.879	5.513	-0.436	0.374
-199.863	43.221	-0.144	0.153
-198.848	32.432	0.157	0.158
-197.832	-156.544	-0.761	0.053
-196.817	-25.737	0.302	0.206
-195.802	-79.817	0.404	-0.156
-194.786	-200.000	0.056	0.709
-193.771	-99.740	0.570	0.164
-192.755	-52.131	0.841	-0.451
-191.740	224.293	0.395	0.749
-190.724	-87.008	0.285	0.100
-189.709	142.594	-0.093	-0.145
-188.694	-142.935	-0.459	-0.051
-187.678	74.961	0.189	-0.233
-186.663	-82.179	-0.504	0.189
-185.647	-79.816	0.332	-0.129
-184.632	-200.000	-0.029	-0.444
-183.617	-181.631	0.707	0.015
-182.601	101.404	-0.242	-0.329
-181.586	-132.216	-0.830	-0.122
-180.570	740.745	-0.151	0.479
-179.555	800.000	-0.142	0.660
-178.539	-131.073	-0.626	-0.095
-177.524	-66.609	0.518	0.237
-176.509	-38.337	0.675	0.413
-175.493	166.705	-0.171	-0.284
-174.478	191.014	-0.295	-0.519
-173.462	-55.856	-0.727	-0.374
-172.447	-142.879	0.876	0.096
-171.432	800.000	-0.016	0.077
-170.416	-56.481	-0.530	-0.271
-169.401	-51.395	-0.551	-0.298
-168.385	-200.000	-0.180	1.558
-167.370	-134.773	0.974	0.134
-166.354	-25.185	0.641	0.439
-165.339	-115.643	-0.832	-0.178
-164.324	224.319	-0.148	-0.279
-163.308	229.495	-0.355	0.678
-162.293	10.214	-0.257	-0.227
-161.277	-200.000	0.017	0.465
-160.262	-74.570	-0.020	0.008
-159.246	800.000	-0.049	0.201
-158.231	240.871	0.130	-0.253
-157.216	-200.000	0.005	-0.259
-156.200	230.630	-0.628	1.203
-155.185	46.571	-0.084	0.091
-154.169	-40.928	-0.197	0.118
-153.154	189.074	-0.187	0.327
-152.139	343.841	-0.151	0.347
-151.123	560.094	-0.302	0.857
-150.108	14.175	0.200	0.181
-149.092	-42.688	0.291	0.171
-148.077	61.780	0.119	0.138
-147.061	2.834	0.478	-0.402
-146.046	-200.000	-0.466	0.002
-145.031	344.970	0.212	-0.488
-144.015	800.000	-0.176	0.641
-143.000	-84.570	0.790	-0.286
-141.984	800.000	0.146	0.635
-140.969	-200.000	-0.048	-0.250
-139.954	800.000	0.287	-1.186
-138.938	-66.103	0.636	-0.292
-137.923	-55.963	-0.400	0.205
-136.907	800.000	0.167	0.728
-135.892	211.240	0.302	0.556
-134.876	-175.767	0.587	-0.018
-133.861	-155.354	-0.905	-0.066
-132.846	50.973	0.488	0.538
-131.830	-111.459	-0.484	-0.112
-130.815	5.969	-0.221	-0.190
-129.799	-173.343	1.361	0.046
-128.784	58.666	-0.033	0.038
-127.768	39.761	0.905	-0.944
-126.753	26.035	0.453	0.438
-125.738	-200.000	-0.173	0.986
-124.722	729.238	0.165	0.517
-123.707	800.000	0.105	0.424
-122.691	-73.732	-1.280	0.536
-121.676	-127.134	0.741	0.123
-120.661	11.492	0.762	-0.677
-119.645	-126.396	0.926	0.157
-118.630	283.977	-0.129	0.271
-117.614	189.694	-0.175	-0.306
-116.599	-116.059	0.385	0.082
-115.583	-134.575	-0.332	-0.046
-114.568	-157.795	0.729	-0.049
-113.553	-62.900	0.998	-0.475
-112.537	-105.645	130.984	33.907
-111.522	11.444	566.875	503.421
-110.506	227.188	89.231	169.513
-109.491	-2.944	34.180	27.631
-108.476	46.295	6.180	6.652
-107.460	-200.000	-0.601	-3.128
-106.445	2.253	-1.940	-1.624
-105.429	-111.337	1.626	0.379
-104.414	-200.000	0.069	-0.372
-103.398	146.644	-0.635	-0.995
-102.383	-86.871	1.006	0.352
-101.368	-200.000	-0.020	-0.443
-100.352	-200.000	0.044	-0.288
-99.337	-94.608	2.054	-0.640
-98.321	-200.000	0.036	-0.620
-97.306	-42.880	-1.760	-1.031
-96.290	-90.886	0.246	-0.081
-95.275	-36.206	1.499	0.933
-94.260	-14.135	-1.156	-0.862
-93.244	61.225	-1.159	-1.338
-92.229	-52.076	-0.359	0.192
-91.213	-91.799	-1.050	-0.341
-90.198	-1.208	-1.483	-1.212
-89.183	800.000	-0.217	-0.962
-88.167	-200.000	-0.103	-0.885
-87.152	409.024	-0.636	-1.576
-86.136	492.419	0.367	-0.985
-85.121	-113.016	0.700	0.158
-84.105	-200.000	0.050	-0.411
-83.090	152.140	0.491	-0.780
-82.075	-166.999	0.463	-0.021
-81.059	-200.000	0.007	-0.225
-80.044	-91.207	-0.579	-0.190
-79.028	-30.629	0.600	-0.392
-78.013	800.000	0.312	-1.080
-76.998	-28.315	-0.871	-0.580
-75.982	-159.648	0.141	-0.009
-74.967	615.564	-0.200	-0.589
-73.951	80.706	-1.122	-1.406
-72.936	-200.000	-0.067	-0.712
-71.920	3.759	0.626	-0.528
-70.905	56.943	-0.522	-0.591
-69.890	-21.064	-0.313	-0.221
-68.874	-10.930	1.183	-0.902
-67.859	-133.082	0.656	0.094
-66.843	97.068	0.410	0.547
-65.828	800.000	-0.222	0.957
-64.812	216.452	0.591	1.096
-63.797	-98.866	0.924	0.268
-62.782	-124.621	2.284	0.403
-61.766	38.439	1.605	1.658
-60.751	-28.250	2.190	1.459
-59.735	-36.106	3.057	1.902
-58.720	-5.228	4.611	3.663
-57.705	-10.462	6.291	4.814
-56.689	16.260	8.821	8.051
-55.674	-44.025	36.307	20.998
-54.658	-33.027	92.569	59.185
-53.643	-11.716	1024.292	776.512
-52.627	15.245	10241.628	9290.159
-51.612	32.418	11483.093	11486.176
-50.597	28.184	8890.699	8689.887
-49.581	25.502	8703.635	8380.444
-48.566	24.735	8668.445	8310.222
-47.550	25.471	8636.669	8313.949
-46.535	25.549	8610.708	8292.289
-45.519	25.501	8592.234	8271.990
-44.504	25.490	8570.857	8250.621
-43.489	25.524	8555.622	8237.227
-42.473	25.546	8544.650	8227.369
-41.458	25.522	8539.363	8220.886
-40.442	25.515	8528.587	8209.908
-39.427	25.487	8523.969	8203.884
-38.412	25.511	8515.310	8196.367
-37.396	25.419	8515.544	8192.069
-36.381	25.498	8514.817	8194.707
-35.365	25.438	8502.897	8180.184
-34.350	25.463	8489.284	8167.985
-33.334	25.531	8482.668	8164.462
-32.319	25.471	8475.017	8154.056
-31.304	25.485	8477.002	8156.299
-30.288	25.489	8474.137	8153.463
-29.273	25.491	8462.754	8142.297
-28.257	25.453	8455.432	8133.233
-27.242	25.494	8447.839	8127.524
-26.227	25.420	8441.526	8117.775
-25.211	25.383	8430.010	8104.729
-24.196	25.318	8431.757	8103.174
-23.180	25.437	8423.437	8100.296
-22.165	25.426	8415.419	8091.823
-21.149	25.488	8416.811	8095.691
-20.134	25.430	8413.835	8089.897
-19.119	25.544	8399.159	8080.669
-18.103	25.499	8393.899	8073.320
-17.088	25.404	8388.448	8063.482
-16.072	25.511	8385.696	8065.387
-15.057	25.467	8373.992	8051.855
-14.041	25.409	8366.512	8041.762
-13.026	25.374	8367.394	8040.734
-12.011	25.419	8367.023	8042.123
-10.995	25.412	8361.219	8035.977
-9.980	25.417	8355.798	8030.706
-8.964	25.383	8347.509	8020.891
-7.949	25.319	8342.595	8013.009
-6.934	25.351	8343.563	8015.114
-5.918	25.450	8337.631	8013.613
-4.903	25.426	8330.657	8005.515
-3.887	25.362	8324.004	7995.981
-2.872	25.289	8324.669	7993.061
-1.856	25.290	8321.764	7990.010
-0.841	25.379	8311.987	7984.377
0.174	23.391	8335.229	8032.820
1.190	23.507	8087.834	7799.229
2.205	22.699	7559.791	7256.116
3.221	23.188	7375.160	7098.443
4.236	25.505	6798.544	6629.717
5.251	30.059	4464.405	4464.643
6.267	23.699	3281.613	3167.303
7.282	24.598	3168.506	3073.669
8.298	24.748	3153.841	3061.904
9.313	24.929	3148.567	3059.785
10.329	25.136	3147.603	3062.296
11.344	25.136	3147.460	3062.028
12.359	25.154	3144.527	3059.347
13.375	25.263	3145.765	3062.312
14.390	25.270	3141.477	3058.112
15.406	25.054	3142.275	3055.040
16.421	25.195	3141.057	3056.165
17.437	25.281	3141.528	3057.961
18.452	25.274	3142.003	3058.177
19.467	25.091	3141.118	3054.038
20.483	25.128	3142.244	3055.640
21.498	25.123	3144.648	3057.759
22.514	25.282	3136.788	3052.724
23.529	25.241	3135.426	3050.567
24.544	25.217	3134.003	3048.633
25.560	25.079	3128.053	3040.352
26.575	23.904	3124.043	3016.180
27.591	24.152	3127.035	3023.188
28.606	23.502	3121.693	3006.754
29.622	22.041	3111.497	2971.827
30.637	21.233	3109.268	2955.734
31.652	21.073	3107.200	2950.916
32.668	22.556	3120.790	2989.163
33.683	24.699	3125.286	3030.121
34.699	24.290	3123.701	3021.443
35.714	27.873	3142.363	3101.020
36.729	29.317	3140.180	3123.496
37.745	25.540	3118.417	3037.310
38.760	23.955	3110.991	3002.905
39.776	23.928	3106.132	2997.644
40.791	24.237	3105.299	3001.964
41.807	24.194	3104.339	3000.177
42.822	23.831	3102.965	2992.539
43.837	23.410	3102.645	2984.931
44.853	23.294	3100.572	2980.845
45.868	23.522	3098.623	2982.718
46.884	22.979	3095.661	2970.510
47.899	22.020	3092.773	2951.313
48.915	21.837	3092.421	2947.741
49.930	21.597	3085.035	2936.504
50.945	21.379	3083.374	2931.106
51.961	21.600	3084.713	2936.007
52.976	23.432	3089.843	2971.857
53.992	23.370	3086.262	2967.238
55.007	22.704	3084.148	2953.802
56.022	22.081	3080.785	2939.915
57.038	22.057	3078.569	2937.271
58.053	22.705	3080.861	2950.285
59.069	24.140	3084.023	2977.472
60.084	23.891	3075.328	2964.753
61.100	22.061	3060.826	2919.904
62.115	21.739	3058.631	2912.269
63.130	23.949	3036.688	2928.091
64.146	24.023	3021.592	2914.649
65.161	24.147	3019.504	2914.551
66.177	24.019	3016.670	2909.578
67.192	23.915	3015.693	2906.793
68.207	24.019	3013.348	2906.138
69.223	24.111	3011.089	2905.340
70.238	24.093	3010.275	2904.137
71.254	24.163	3006.530	2901.562
72.269	24.197	3005.433	2900.927
73.285	24.168	3002.078	2897.091
74.300	24.283	3004.428	2901.132
75.315	24.875	3002.847	2909.215
76.331	25.026	3001.759	2910.528
77.346	24.914	2993.287	2900.346
78.362	24.073	2985.160	2878.610
79.377	23.990	2982.503	2874.560
80.393	23.943	2981.902	2873.086
81.408	24.018	2976.550	2869.042
82.423	24.139	2969.718	2864.300
83.439	24.106	2971.252	2865.121
84.454	24.124	2973.489	2867.454
85.470	24.034	2970.253	2862.740
86.485	24.125	2966.026	2860.020
87.500	24.080	2968.334	2861.391
88.516	24.125	2967.140	2860.855
89.531	24.954	2964.299	2871.435
90.547	25.508	2965.394	2881.371
91.562	24.738	2960.964	2864.475
92.578	23.939	2957.065	2847.637
93.593	23.746	2954.367	2841.798
94.608	23.682	2950.619	2837.033
95.624	23.737	2951.091	2838.270
96.639	23.757	2951.647	2838.997
97.655	23.851	2948.186	2837.072
98.670	23.889	2942.464	2832.050
99.685	23.929	2941.094	2831.264
100.701	23.655	2940.661	2826.303
101.716	23.489	2934.270	2817.385
102.732	23.460	2932.717	2815.294
103.747	24.158	2939.682	2833.102
104.763	27.099	2949.417	2889.758
105.778	24.240	2929.244	2824.117
106.793	22.378	2914.968	2780.506
107.809	22.040	2947.552	2806.015
108.824	34.373	1738.712	1771.948
109.840	17.411	260.775	241.597
110.855	-7.160	66.909	52.844
111.871	-9.151	46.530	36.228
112.886	-109.288	43.625	10.628
113.901	-98.375	43.659	12.878
114.917	30.620	41.416	41.355
115.932	26.774	40.145	39.243
116.948	30.147	39.403	39.240
117.963	27.194	39.509	38.709
118.978	30.353	38.587	38.467
