DTS Sentinel unit serial number:	SN208115Multiplexer serial number:	no multiplexerHardware model number:	SEN2MRSoftware version number:	3.7data status	okinstallation	Posledni klalibrace stavebkadifferential loss correction	single-endedforward channel	Posledni klalibrace stavebkareverse channel	N/Adate	2016/05/20time	08:26:42forward acquisition time	30.20reverse acquisition time	NaNgamma	501.9000k internal	0.1933k external	0.1933temperature offset calibration	0.9869default loss term (dB/km)	0.2890temperature slope calibration	0.6300multiplexer offset coefficient	0.0000multiplexer slope coefficient	0.0000fibre end	NaNT internal ref (°C)	25.45T ext. ref 1 (°C)	0.73T ext. ref 2 (°C)	0.40length (m)	temperature (°C)	Stokes	anti-Stokes-373.500	-53.792	0.750	-0.398
-372.485	89.520	0.538	0.705
-371.469	800.000	-0.064	-0.231
-370.454	12.199	0.324	-0.292
-369.438	800.000	-0.235	-0.904
-368.423	-81.359	0.486	-0.186
-367.407	348.287	0.159	-0.371
-366.392	-164.801	-0.785	-0.040
-365.377	-45.271	-0.255	0.148
-364.361	-21.847	-0.611	0.434
-363.346	85.467	-0.099	-0.128
-362.330	800.000	-0.164	-0.591
-361.315	800.000	0.170	0.618
-360.300	-173.122	-1.026	-0.036
-359.284	-113.521	0.818	-0.185
-358.269	-122.000	-0.609	0.115
-357.253	335.260	-0.169	-0.387
-356.238	24.169	0.414	0.401
-355.222	800.000	0.161	-0.685
-354.207	-118.197	0.117	0.024
-353.192	95.794	0.231	0.310
-352.176	218.908	0.257	0.485
-351.161	-73.334	-0.895	0.379
-350.145	-200.000	0.009	0.348
-349.130	212.795	-0.206	0.384
-348.115	-78.995	-0.215	0.085
-347.099	-109.949	0.626	-0.151
-346.084	188.810	-0.081	-0.142
-345.068	-200.000	0.029	-0.691
-344.053	212.467	0.210	0.390
-343.037	-43.732	0.374	0.219
-342.022	5.490	-0.016	-0.014
-341.007	-103.087	-0.072	-0.020
-339.991	59.771	0.536	0.620
-338.976	187.000	0.395	0.694
-337.960	-166.142	-0.824	0.040
-336.945	65.446	-0.686	-0.814
-335.929	7.467	0.749	0.655
-334.914	-127.505	-0.658	-0.110
-333.899	-85.240	0.076	0.027
-332.883	-50.778	0.739	0.404
-331.868	-62.931	0.258	-0.124
-330.852	121.654	-0.480	-0.704
-329.837	18.053	0.165	-0.153
-328.822	355.211	0.423	0.993
-327.806	17.874	0.756	0.704
-326.791	-63.731	0.239	0.114
-325.775	800.000	0.096	-0.335
-324.760	101.715	0.586	0.802
-323.744	32.462	0.363	0.367
-322.729	-200.000	0.069	-0.601
-321.714	-24.768	-0.318	0.220
-320.698	-8.438	-1.083	0.850
-319.683	800.000	0.124	-0.491
-318.667	-200.000	-0.047	-0.440
-317.652	-126.494	0.521	-0.089
-316.637	110.525	-0.243	-0.344
-315.621	-50.442	-1.013	-0.555
-314.606	-170.590	0.748	-0.029
-313.590	384.069	-0.146	0.356
-312.575	-179.577	-0.285	-0.007
-311.559	-42.121	0.030	-0.018
-310.544	90.157	0.209	-0.274
-309.529	241.098	-0.286	-0.563
-308.513	-108.260	-0.320	-0.080
-307.498	-128.240	0.596	0.097
-306.482	-93.300	0.370	0.119
-305.467	269.523	-0.135	-0.280
-304.451	617.841	0.111	-0.329
-303.436	150.203	-0.334	0.533
-302.421	-6.961	-0.421	-0.333
-301.405	-200.000	-0.612	0.000
-300.390	-109.594	-1.194	0.290
-299.374	-97.526	-1.049	-0.314
-298.359	-2.895	-0.417	0.340
-297.344	48.592	-0.304	-0.333
-296.328	20.973	0.701	-0.664
-295.313	139.352	-0.160	0.247
-294.297	5.333	-0.580	0.499
-293.282	637.175	0.249	-0.748
-292.266	-100.926	-0.199	-0.056
-291.251	-100.703	0.868	-0.247
-290.236	159.778	0.433	0.709
-289.220	-125.574	-1.386	-0.241
-288.205	-82.586	-0.221	0.083
-287.189	-176.764	1.290	0.037
-286.174	212.336	0.234	-0.434
-285.159	-73.363	0.757	0.320
-284.143	-61.214	0.811	0.396
-283.128	-93.718	-0.099	0.031
-282.112	-200.000	-0.074	0.520
-281.097	800.000	-0.254	-0.864
-280.081	65.054	0.379	0.449
-279.066	-112.507	-0.278	0.064
-278.051	-79.054	-0.916	-0.360
-277.035	717.301	-0.181	-0.568
-276.020	38.065	0.511	-0.531
-275.004	800.000	-0.212	-0.765
-273.989	-20.059	-0.523	0.375
-272.973	-200.000	-0.035	-0.645
-271.958	-11.646	-0.178	0.136
-270.943	-102.052	0.296	-0.082
-269.927	736.745	0.122	-0.388
-268.912	800.000	-0.125	0.423
-267.896	-118.932	-0.060	-0.012
-266.881	170.991	0.111	-0.187
-265.866	273.050	-0.321	-0.668
-264.850	186.983	-0.054	0.094
-263.835	800.000	0.139	-0.543
-262.819	157.690	0.273	-0.445
-261.804	-126.973	0.563	-0.095
-260.788	-200.000	0.118	-0.900
-259.773	213.630	0.128	-0.238
-258.758	368.260	0.027	0.065
-257.742	-59.581	-0.652	-0.324
-256.727	800.000	-0.301	-1.481
-255.711	800.000	-0.200	-0.668
-254.696	-200.000	0.001	-0.011
-253.680	-48.849	-0.326	0.182
-252.665	-200.000	0.063	0.686
-251.650	-145.397	0.629	0.064
-250.634	-75.694	-0.221	-0.090
-249.619	-126.993	-0.094	0.016
-248.603	-14.534	0.487	0.364
-247.588	14.394	0.656	-0.596
-246.573	8.593	0.578	-0.507
-245.557	310.237	0.435	-0.959
-244.542	17.369	0.242	-0.224
-243.526	-200.000	-0.057	-0.455
-242.511	21.355	0.545	0.516
-241.495	800.000	0.120	0.441
-240.480	-200.000	-0.033	-0.270
-239.465	-5.892	0.060	-0.048
-238.449	1.381	-0.854	0.715
-237.434	13.331	-0.389	0.352
-236.418	-81.119	0.325	0.124
-235.403	-96.089	0.435	-0.133
-234.388	107.463	0.289	-0.403
-233.372	-114.381	0.335	0.074
-232.357	156.429	-0.320	0.518
-231.341	730.666	-0.194	-0.614
-230.326	183.365	-0.245	0.425
-229.310	371.085	0.433	1.035
-228.295	-200.000	0.000	0.165
-227.280	-200.000	0.074	0.628
-226.264	-89.504	-0.606	-0.205
-225.249	-74.362	0.450	0.188
-224.233	255.769	-0.255	0.514
-223.218	-114.240	0.418	0.092
-222.202	328.661	0.162	-0.366
-221.187	-34.750	-0.193	0.122
-220.172	200.297	-0.032	-0.058
-219.156	-200.000	0.034	-0.339
-218.141	-44.093	0.434	0.253
-217.125	3.359	-0.414	-0.351
-216.110	26.827	0.254	0.248
-215.095	462.343	-0.271	0.712
-214.079	-200.000	-0.014	0.496
-213.064	-60.054	-0.297	0.147
-212.048	-200.000	0.057	0.563
-211.033	58.744	0.460	0.528
-210.017	198.514	-0.327	-0.588
-209.002	-44.024	-0.490	-0.285
-207.987	-65.310	-0.512	-0.238
-206.971	729.578	0.164	-0.518
-205.956	800.000	0.024	0.115
-204.940	-19.784	0.085	0.061
-203.925	-143.317	0.468	0.051
-202.910	-23.974	0.384	0.267
-201.894	-91.422	0.340	0.112
-200.879	-200.000	0.892	0.003
-199.863	-95.592	-0.688	0.212
-198.848	-48.638	0.938	-0.522
-197.832	-112.693	-0.783	-0.178
-196.817	375.948	-0.330	0.791
-195.802	800.000	-0.146	0.586
-194.786	-31.616	-0.741	-0.483
-193.771	300.288	0.049	-0.106
-192.755	319.194	0.127	0.283
-191.740	-108.042	0.424	0.105
-190.724	-139.175	-0.938	0.115
-189.709	188.329	-0.493	0.864
-188.694	221.204	-0.221	0.416
-187.678	57.609	0.260	0.296
-186.663	-1.269	-0.359	-0.294
-185.647	-127.988	-0.467	-0.076
-184.632	800.000	0.238	0.814
-183.617	25.649	0.392	0.380
-182.601	-180.045	-0.625	0.015
-181.586	-91.029	-0.767	0.253
-180.570	-200.000	-0.019	0.220
-179.555	74.625	0.341	-0.419
-178.539	24.669	-0.292	-0.281
-177.524	46.857	-0.881	0.954
-176.509	289.845	0.204	0.434
-175.493	-45.583	0.419	0.240
-174.478	126.474	-0.296	0.438
-173.462	-78.077	0.567	0.225
-172.447	212.412	0.447	0.826
-171.432	-163.459	0.466	-0.025
-170.416	-94.825	-0.858	-0.267
-169.401	-103.685	0.474	-0.127
-168.385	-39.436	0.077	0.047
-167.370	-58.708	-0.510	-0.255
-166.354	-14.541	0.155	0.116
-165.339	-128.054	-1.056	0.173
-164.324	-122.249	-0.357	0.067
-163.308	-47.805	0.426	0.239
-162.293	-8.828	0.875	-0.681
-161.277	-109.138	-0.384	-0.094
-160.262	285.021	0.263	-0.555
-159.246	-119.690	0.549	0.108
-158.231	800.000	0.054	0.278
-157.216	47.221	-0.027	-0.029
-156.200	-102.814	-0.456	0.124
-155.185	145.592	-0.269	-0.421
-154.169	-6.303	0.313	-0.248
-153.154	-13.237	0.491	-0.370
-152.139	-200.000	0.011	-0.101
-151.123	-99.207	0.488	0.142
-150.108	112.084	-0.449	-0.633
-149.092	169.453	0.225	-0.376
-148.077	377.251	-0.120	-0.289
-147.061	-71.594	-0.620	-0.267
-146.046	-77.910	0.485	-0.192
-145.031	-200.000	-0.047	0.464
-144.015	-111.671	-0.366	-0.085
-143.000	-70.299	0.667	0.292
-141.984	-183.364	-0.293	-0.006
-140.969	-53.810	-0.286	0.151
-139.954	-57.902	0.422	-0.213
-138.938	172.096	-0.335	-0.563
-137.923	-200.000	-0.011	-0.594
-136.907	200.627	0.172	0.310
-135.892	258.062	-0.570	1.151
-134.876	31.676	0.438	-0.438
-133.861	141.674	0.464	-0.718
-132.846	-103.767	-0.394	-0.106
-131.830	27.543	-0.270	0.264
-130.815	115.091	0.371	-0.529
-129.799	22.988	0.320	-0.305
-128.784	-200.000	0.038	0.290
-127.768	800.000	0.349	1.151
-126.753	800.000	-0.060	0.268
-125.738	-200.000	-0.068	0.369
-124.722	-200.000	0.994	0.001
-123.707	3.034	0.326	-0.275
-122.691	142.004	-0.116	-0.180
-121.676	201.272	0.373	0.672
-120.661	-26.072	0.891	-0.606
-119.645	-81.945	-0.920	-0.346
-118.630	-140.218	-1.155	0.137
-117.614	-182.321	-0.519	-0.011
-116.599	-101.393	0.283	-0.079
-115.583	167.190	-0.326	-0.542
-114.568	17.849	-0.118	-0.109
-113.553	-66.313	0.643	0.295
-112.537	-88.051	105.951	36.504
-111.522	50.323	435.455	478.530
-110.506	293.173	71.871	153.625
-109.491	2.916	33.324	28.053
-108.476	86.587	5.788	7.437
-107.460	-200.000	-0.095	-3.492
-106.445	2.492	-1.531	-1.285
-105.429	-37.916	0.472	0.290
-104.414	9.733	-0.581	-0.511
-103.398	-200.000	-0.263	-1.732
-102.383	37.459	0.203	-0.209
-101.368	-66.452	-1.408	-0.644
-100.352	-114.521	0.609	-0.133
-99.337	-49.525	1.476	0.811
-98.321	800.000	-0.173	-0.875
-97.306	13.533	-1.328	-1.195
-96.290	-96.504	0.579	0.175
-95.275	-160.643	1.857	-0.111
-94.260	276.361	-0.536	-1.115
-93.244	675.307	-0.689	-2.105
-92.229	24.704	0.420	-0.404
-91.213	116.702	-0.828	-1.184
-90.198	89.970	-0.995	-1.295
-89.183	-200.000	-0.112	-1.752
-88.167	182.627	0.702	-1.209
-87.152	123.597	-0.686	-1.002
-86.136	-116.546	1.318	-0.277
-85.121	-148.474	0.569	-0.053
-84.105	152.786	-0.513	-0.818
-83.090	776.537	-0.364	-1.168
-82.075	-150.070	0.477	0.042
-81.059	141.912	0.312	-0.482
-80.044	-200.000	-0.100	-1.461
-79.028	-53.143	0.766	-0.405
-78.013	-92.113	0.476	0.154
-76.998	800.000	0.043	-0.184
-75.982	-39.772	1.079	-0.651
-74.967	35.369	0.529	0.538
-73.951	93.790	-0.524	-0.691
-72.936	800.000	0.221	-1.014
-71.920	-43.104	1.391	-0.813
-70.905	389.440	0.412	-1.001
-69.890	103.734	-0.644	-0.880
-68.874	-153.913	1.657	-0.127
-67.859	-33.971	0.450	0.286
-66.843	-196.243	1.431	-0.011
-65.828	-87.825	1.030	0.355
-64.812	-136.837	1.853	0.242
-63.797	1.169	0.587	0.488
-62.782	-105.032	1.489	0.390
-61.766	-44.702	2.348	1.351
-60.751	-38.817	2.022	1.229
-59.735	27.781	2.617	2.556
-58.720	-11.612	5.386	4.092
-57.705	-10.967	5.909	4.510
-56.689	6.173	9.360	8.034
-55.674	-47.579	39.438	22.058
-54.658	-31.452	96.152	62.386
-53.643	-11.817	1034.881	784.798
-52.627	15.258	10260.155	9317.690
-51.612	32.373	11506.133	11518.776
-50.597	28.199	8935.747	8743.981
-49.581	25.540	8745.112	8431.218
-48.566	24.822	8707.489	8360.751
-47.550	25.408	8676.550	8358.333
-46.535	25.603	8650.456	8342.042
-45.519	25.562	8629.504	8319.631
-44.504	25.612	8606.997	8299.970
-43.489	25.503	8591.915	8280.078
-42.473	25.488	8583.517	8270.985
-41.458	25.498	8575.921	8263.817
-40.442	25.479	8564.997	8252.136
-39.427	25.448	8561.367	8246.904
-38.412	25.438	8554.993	8239.991
-37.396	25.439	8550.792	8235.732
-36.381	25.514	8546.168	8234.457
-35.365	25.556	8533.312	8223.730
-34.350	25.480	8523.515	8210.497
-33.334	25.483	8520.054	8207.023
-32.319	25.558	8510.114	8200.591
-31.304	25.553	8509.878	8199.849
-30.288	25.502	8506.838	8194.295
-29.273	25.475	8497.730	8183.985
-28.257	25.454	8488.174	8173.532
-27.242	25.512	8481.268	8169.237
-26.227	25.547	8470.527	8160.240
-25.211	25.476	8461.087	8147.578
-24.196	25.413	8461.866	8145.169
-23.180	25.347	8457.531	8137.704
-22.165	25.354	8450.564	8130.997
-21.149	25.444	8450.686	8134.984
-20.134	25.431	8446.209	8129.764
-19.119	25.461	8435.176	8120.244
-18.103	25.523	8425.017	8112.997
-17.088	25.367	8422.143	8102.847
-16.072	25.501	8416.264	8103.030
-15.057	25.467	8405.939	8091.232
-14.041	25.416	8401.437	8084.295
-13.026	25.340	8401.511	8080.628
-12.011	25.470	8398.106	8082.978
-10.995	25.402	8392.694	8074.397
-9.980	25.437	8388.550	8071.718
-8.964	25.372	8380.850	8061.061
-7.949	25.396	8373.109	8054.453
-6.934	25.418	8374.823	8056.792
-5.918	25.351	8370.456	8049.289
-4.903	25.406	8361.149	8042.542
-3.887	25.345	8354.421	8033.042
-2.872	25.310	8352.670	8029.483
-1.856	25.414	8346.314	8027.775
-0.841	25.373	8339.792	8019.399
0.174	23.417	8365.394	8071.727
1.190	23.562	8117.792	7838.996
2.205	22.535	7592.623	7288.574
3.221	22.987	7405.085	7126.694
4.236	25.311	6838.140	6668.227
5.251	29.785	4510.420	4508.737
6.267	23.926	3323.983	3215.787
7.282	24.568	3210.383	3117.092
8.298	24.766	3195.846	3106.333
9.313	25.056	3191.396	3106.953
10.329	25.156	3190.137	3107.356
11.344	25.120	3190.234	3106.683
12.359	25.208	3185.469	3103.445
13.375	25.154	3189.630	3106.429
14.390	25.095	3186.256	3101.969
15.406	25.066	3183.922	3099.067
16.421	25.080	3182.205	3097.497
17.437	25.283	3182.801	3101.498
18.452	25.217	3182.875	3100.280
19.467	25.344	3179.581	3099.156
20.483	25.214	3184.016	3101.081
21.498	25.205	3185.818	3102.554
22.514	25.192	3180.714	3097.218
23.529	25.141	3179.220	3094.739
24.544	25.272	3175.962	3093.730
25.560	25.058	3171.965	3085.967
26.575	23.952	3166.513	3061.299
27.591	24.069	3169.038	3065.650
28.606	23.269	3163.213	3045.967
29.622	22.206	3156.660	3021.063
30.637	21.570	3150.600	3004.100
31.652	21.072	3149.969	2994.722
32.668	22.694	3161.462	3033.755
33.683	24.738	3168.456	3075.939
34.699	24.436	3171.360	3073.372
35.714	27.988	3188.634	3152.065
36.729	29.413	3185.130	3173.272
37.745	25.735	3162.052	3086.501
38.760	24.227	3153.985	3052.388
39.776	24.377	3149.649	3050.657
40.791	24.628	3150.252	3055.452
41.807	24.352	3148.300	3048.666
42.822	23.568	3145.506	3032.275
43.837	23.230	3146.343	3027.109
44.853	23.127	3143.124	3022.102
45.868	23.454	3142.889	3027.398
46.884	23.009	3138.087	3014.964
47.899	21.917	3134.412	2992.483
48.915	21.884	3130.228	2987.802
49.930	21.641	3127.203	2980.593
50.945	21.616	3124.063	2977.051
51.961	21.794	3125.222	2981.079
52.976	23.455	3134.871	3018.801
53.992	23.429	3130.797	3014.302
55.007	22.829	3125.929	2999.182
56.022	21.985	3122.653	2981.414
57.038	21.897	3121.733	2978.892
58.053	22.364	3121.449	2986.516
59.069	23.360	3118.212	3000.359
60.084	23.407	3107.620	2990.839
61.100	21.727	3095.109	2950.085
62.115	21.769	3092.135	2947.839
63.130	23.941	3065.563	2958.972
64.146	24.089	3049.402	2945.733
65.161	24.072	3049.995	2945.883
66.177	24.083	3047.222	2943.264
67.192	24.081	3044.521	2940.506
68.207	24.078	3045.096	2940.888
69.223	24.165	3045.458	2942.557
70.238	24.104	3044.970	2940.944
71.254	24.178	3039.200	2936.487
72.269	24.323	3036.008	2935.689
73.285	24.105	3033.710	2929.712
74.300	24.395	3032.075	2932.839
75.315	25.036	3031.588	2942.883
76.331	25.119	3031.171	2943.731
77.346	24.845	3022.628	2930.769
78.362	24.017	3011.160	2905.862
79.377	23.944	3007.632	2901.130
80.393	23.990	3008.094	2902.216
81.408	24.123	3003.354	2899.706
82.423	24.034	2997.720	2892.677
83.439	24.090	2997.563	2893.325
84.454	24.174	2997.205	2894.241
85.470	24.068	2994.181	2889.452
86.485	23.998	2991.009	2885.118
87.500	23.915	2994.502	2887.000
88.516	24.035	2994.404	2888.760
89.531	24.528	2994.071	2896.408
90.547	25.101	2996.118	2907.667
91.562	24.538	2988.945	2891.370
92.578	23.978	2984.982	2878.245
93.593	23.796	2981.795	2872.076
94.608	23.824	2977.458	2868.232
95.624	23.707	2981.651	2870.243
96.639	23.767	2980.685	2870.163
97.655	23.860	2977.015	2868.026
98.670	23.919	2970.468	2862.564
99.685	23.803	2971.762	2861.800
100.701	23.741	2969.023	2858.023
101.716	23.505	2964.202	2849.428
102.732	23.492	2962.420	2847.377
103.747	24.293	2965.524	2863.270
104.763	27.373	2975.873	2923.244
105.778	24.313	2954.986	2853.163
106.793	22.360	2938.289	2805.460
107.809	21.683	2976.494	2830.759
108.824	34.143	1761.791	1795.195
109.840	17.482	263.688	244.662
110.855	-6.253	67.366	53.605
111.871	-1.755	47.016	38.594
112.886	-93.213	44.478	14.262
113.901	-118.103	44.072	9.030
114.917	18.094	42.803	39.850
115.932	26.475	40.963	40.019
116.948	30.179	39.622	39.508
117.963	27.069	39.857	39.064
118.978	28.786	39.136	38.722
